%OpenBCI Raw EEG Data
%Number of channels = 8
%Sample Rate = 250 Hz
%Board = OpenBCI_GUI$BoardCytonSerial
Sample Index, EXG Channel 0, EXG Channel 1, EXG Channel 2, EXG Channel 3, EXG Channel 4, EXG Channel 5, EXG Channel 6, EXG Channel 7, Accel Channel 0, Accel Channel 1, Accel Channel 2, Other, Other, Other, Other, Other, Other, Other, Analog Channel 0, Analog Channel 1, Analog Channel 2, Timestamp, Timestamp (Formatted)
251.0, 166510.390625, 187500.0, -37485.640625, -7871.6806640625, -187500.015625, -9120.2041015625, 1635.1641845703125, 3518.52197265625, 0.030000001192092896, 0.940000057220459, 0.2200000137090683, 192.0, 0.0, 0.0, 0.0, 0.0, 0.0, 0.0, 0.0, 0.0, 0.0, 1.6154787593043087E9, 2021-03-11 17:05:59.304
252.0, 166446.03125, 187500.0, -37237.04296875, -7726.46142578125, -187500.015625, -9198.9052734375, 1530.781494140625, 3444.515380859375, 0.030000001192092896, 0.940000057220459, 0.2200000137090683, 192.0, 0.0, 0.0, 0.0, 0.0, 0.0, 0.0, 0.0, 0.0, 0.0, 1.6154787593044655E9, 2021-03-11 17:05:59.304
253.0, 166185.1875, 187500.0, -37267.53125, -7749.55078125, -187500.015625, -9508.7451171875, 1199.193359375, 3146.0078125, 0.030000001192092896, 0.940000057220459, 0.2200000137090683, 192.0, 0.0, 0.0, 0.0, 0.0, 0.0, 0.0, 0.0, 0.0, 0.0, 1.615478759304475E9, 2021-03-11 17:05:59.304
254.0, 166047.59375, 187500.0, -37545.6328125, -7902.50390625, -187500.015625, -9642.2958984375, 1102.0303955078125, 3019.251220703125, 0.030000001192092896, 0.940000057220459, 0.2200000137090683, 192.0, 0.0, 0.0, 0.0, 0.0, 0.0, 0.0, 0.0, 0.0, 0.0, 1.6154787593044808E9, 2021-03-11 17:05:59.304
255.0, 166285.96875, 187500.0, -37651.9375, -7951.76708984375, -187500.015625, -9389.38671875, 1418.151123046875, 3303.5654296875, 0.030000001192092896, 0.940000057220459, 0.2200000137090683, 192.0, 0.0, 0.0, 0.0, 0.0, 0.0, 0.0, 0.0, 0.0, 0.0, 1.615478759304485E9, 2021-03-11 17:05:59.304
0.0, 166540.46875, 187500.0, -37447.91015625, -7823.75830078125, -187500.015625, -9148.3896484375, 1655.3477783203125, 3547.266357421875, 0.030000001192092896, 0.940000057220459, 0.2200000137090683, 192.0, 0.0, 0.0, 0.0, 0.0, 0.0, 0.0, 0.0, 0.0, 0.0, 1.6154787593044896E9, 2021-03-11 17:05:59.304
1.0, 166474.265625, 187500.0, -37264.06640625, -7694.7216796875, -187500.015625, -9257.734375, 1534.0672607421875, 3457.99365234375, 0.030000001192092896, 0.940000057220459, 0.2200000137090683, 192.0, 0.0, 0.0, 0.0, 0.0, 0.0, 0.0, 0.0, 0.0, 0.0, 1.615478759304495E9, 2021-03-11 17:05:59.304
2.0, 166178.15625, 187500.0, -37343.08203125, -7740.83349609375, -187500.015625, -9593.5693359375, 1208.0670166015625, 3139.481201171875, 0.04400000348687172, 0.9280000329017639, 0.21000000834465027, 192.0, 1.0, 96.0, 29.0, 0.0, 6.0, 144.0, 0.0, 0.0, 0.0, 1.6154787593045003E9, 2021-03-11 17:05:59.304
3.0, 166029.203125, 187500.0, -37638.90625, -7908.0244140625, -187500.015625, -9708.45703125, 1085.199462890625, 3014.423095703125, 0.04400000348687172, 0.9280000329017639, 0.21000000834465027, 192.0, 0.0, 0.0, 0.0, 0.0, 0.0, 0.0, 0.0, 0.0, 0.0, 1.6154787593045042E9, 2021-03-11 17:05:59.304
4.0, 166272.828125, 187500.0, -37736.08984375, -7952.90673828125, -187500.015625, -9404.25, 1400.739013671875, 3301.486572265625, 0.04400000348687172, 0.9280000329017639, 0.21000000834465027, 192.0, 0.0, 0.0, 0.0, 0.0, 0.0, 0.0, 0.0, 0.0, 0.0, 1.61547875930451E9, 2021-03-11 17:05:59.304
5.0, 166525.03125, 187500.0, -37509.33203125, -7823.3115234375, -187500.015625, -9154.759765625, 1658.8345947265625, 3546.90869140625, 0.04400000348687172, 0.9280000329017639, 0.21000000834465027, 192.0, 0.0, 0.0, 0.0, 0.0, 0.0, 0.0, 0.0, 0.0, 0.0, 1.615478759304515E9, 2021-03-11 17:05:59.304
6.0, 166435.46875, 187500.0, -37318.24609375, -7709.29541015625, -187500.015625, -9281.5390625, 1518.3092041015625, 3439.620361328125, 0.04400000348687172, 0.9280000329017639, 0.21000000834465027, 192.0, 0.0, 0.0, 0.0, 0.0, 0.0, 0.0, 0.0, 0.0, 0.0, 1.61547875930452E9, 2021-03-11 17:05:59.304
7.0, 166171.421875, 187500.0, -37367.62109375, -7751.62939453125, -187500.015625, -9594.0166015625, 1205.1612548828125, 3143.281005859375, 0.04400000348687172, 0.9280000329017639, 0.21000000834465027, 192.0, 0.0, 0.0, 0.0, 0.0, 0.0, 0.0, 0.0, 0.0, 0.0, 1.6154787593045237E9, 2021-03-11 17:05:59.304
8.0, 166043.421875, 187500.0, -37639.41796875, -7913.50048828125, -187500.015625, -9703.875, 1104.690185546875, 3033.019775390625, 0.04400000348687172, 0.9280000329017639, 0.21000000834465027, 192.0, 0.0, 0.0, 0.0, 0.0, 0.0, 0.0, 0.0, 0.0, 0.0, 1.6154787593045964E9, 2021-03-11 17:05:59.304
9.0, 166266.21875, 187500.0, -37707.9296875, -7951.11865234375, -187500.015625, -9408.9892578125, 1433.439697265625, 3327.146484375, 0.04400000348687172, 0.9280000329017639, 0.21000000834465027, 192.0, 0.0, 0.0, 0.0, 0.0, 0.0, 0.0, 0.0, 0.0, 0.0, 1.6154787593046036E9, 2021-03-11 17:05:59.304
10.0, 166511.765625, 187500.0, -37472.87890625, -7829.078125, -187500.015625, -9176.8212890625, 1707.3603515625, 3559.828125, 0.04400000348687172, 0.9280000329017639, 0.21000000834465027, 192.0, 0.0, 0.0, 0.0, 0.0, 0.0, 0.0, 0.0, 0.0, 0.0, 1.615478759304614E9, 2021-03-11 17:05:59.304
11.0, 166445.640625, 187500.0, -37250.5, -7696.08544921875, -187500.015625, -9269.7822265625, 1560.33056640625, 3464.497802734375, 0.04400000348687172, 0.9280000329017639, 0.21000000834465027, 192.0, 0.0, 0.0, 0.0, 0.0, 0.0, 0.0, 0.0, 0.0, 0.0, 1.6154787593046176E9, 2021-03-11 17:05:59.304
12.0, 166160.21875, 187500.0, -37305.6640625, -7744.20849609375, -187500.015625, -9603.2255859375, 1229.591796875, 3155.10498046875, 0.024000000208616257, 0.968000054359436, 0.20000000298023224, 192.0, 0.0, 192.0, 30.0, 64.0, 6.0, 64.0, 0.0, 0.0, 0.0, 1.615478759304621E9, 2021-03-11 17:05:59.304
13.0, 166011.96875, 187500.0, -37614.4296875, -7934.01953125, -187500.015625, -9710.0888671875, 1132.294677734375, 3012.076171875, 0.024000000208616257, 0.968000054359436, 0.20000000298023224, 192.0, 0.0, 0.0, 0.0, 0.0, 0.0, 0.0, 0.0, 0.0, 0.0, 1.6154787593046236E9, 2021-03-11 17:05:59.304
14.0, 166286.9375, 187500.0, -37677.3046875, -7967.63671875, -187500.015625, -9377.2265625, 1400.6719970703125, 3270.015380859375, 0.024000000208616257, 0.968000054359436, 0.20000000298023224, 192.0, 0.0, 0.0, 0.0, 0.0, 0.0, 0.0, 0.0, 0.0, 0.0, 1.6154787593046303E9, 2021-03-11 17:05:59.304
15.0, 166534.8125, 187500.0, -37442.45703125, -7833.57080078125, -187500.015625, -9136.7001953125, 1657.962890625, 3480.14404296875, 0.024000000208616257, 0.968000054359436, 0.20000000298023224, 192.0, 0.0, 0.0, 0.0, 0.0, 0.0, 0.0, 0.0, 0.0, 0.0, 1.6154787593046327E9, 2021-03-11 17:05:59.304
16.0, 166443.3125, 187500.0, -37253.515625, -7709.87646484375, -187500.015625, -9269.201171875, 1556.083740234375, 3376.655517578125, 0.024000000208616257, 0.968000054359436, 0.20000000298023224, 192.0, 0.0, 0.0, 0.0, 0.0, 0.0, 0.0, 0.0, 0.0, 0.0, 1.6154787593046353E9, 2021-03-11 17:05:59.304
17.0, 166171.453125, 187500.0, -37328.015625, -7750.712890625, -187500.015625, -9577.4091796875, 1263.7005615234375, 3107.96533203125, 0.024000000208616257, 0.968000054359436, 0.20000000298023224, 192.0, 0.0, 0.0, 0.0, 0.0, 0.0, 0.0, 0.0, 0.0, 0.0, 1.6154787593046384E9, 2021-03-11 17:05:59.304
18.0, 166064.65625, 187500.0, -37617.8515625, -7911.91357421875, -187500.015625, -9668.984375, 1169.1527099609375, 3005.974365234375, 0.024000000208616257, 0.968000054359436, 0.20000000298023224, 192.0, 0.0, 0.0, 0.0, 0.0, 0.0, 0.0, 0.0, 0.0, 0.0, 1.6154787593046408E9, 2021-03-11 17:05:59.304
19.0, 166309.4375, 187500.0, -37702.9453125, -7957.421875, -187500.015625, -9369.5380859375, 1489.76611328125, 3281.705322265625, 0.024000000208616257, 0.968000054359436, 0.20000000298023224, 192.0, 0.0, 0.0, 0.0, 0.0, 0.0, 0.0, 0.0, 0.0, 0.0, 1.6154787593046455E9, 2021-03-11 17:05:59.304
20.0, 166519.171875, 187500.0, -37465.14453125, -7814.39306640625, -187500.015625, -9128.8994140625, 1728.1474609375, 3512.4423828125, 0.024000000208616257, 0.968000054359436, 0.20000000298023224, 192.0, 0.0, 0.0, 0.0, 0.0, 0.0, 0.0, 0.0, 0.0, 0.0, 1.6154787593046484E9, 2021-03-11 17:05:59.304
21.0, 166425.671875, 187500.0, -37271.6875, -7695.794921875, -187500.015625, -9268.0166015625, 1572.6463623046875, 3389.150146484375, 0.024000000208616257, 0.968000054359436, 0.20000000298023224, 192.0, 0.0, 0.0, 0.0, 0.0, 0.0, 0.0, 0.0, 0.0, 0.0, 1.6154787593046532E9, 2021-03-11 17:05:59.304
22.0, 166145.46875, 187500.0, -37356.9609375, -7761.5537109375, -187500.015625, -9584.0029296875, 1279.3914794921875, 3077.54443359375, 0.00800000037997961, 0.9260000586509705, 0.19600000977516174, 192.0, 0.0, 64.0, 28.0, 240.0, 6.0, 32.0, 0.0, 0.0, 0.0, 1.6154787593046591E9, 2021-03-11 17:05:59.304
23.0, 166039.953125, 187500.0, -37638.01171875, -7920.13916015625, -187500.015625, -9648.2646484375, 1240.7677001953125, 2995.6923828125, 0.00800000037997961, 0.9260000586509705, 0.19600000977516174, 192.0, 0.0, 0.0, 0.0, 0.0, 0.0, 0.0, 0.0, 0.0, 0.0, 1.6154787593046649E9, 2021-03-11 17:05:59.304
24.0, 166309.125, 187500.0, -37688.28125, -7951.94580078125, -187500.015625, -9338.2451171875, 1525.886474609375, 3302.64892578125, 0.00800000037997961, 0.9260000586509705, 0.19600000977516174, 192.0, 0.0, 0.0, 0.0, 0.0, 0.0, 0.0, 0.0, 0.0, 0.0, 1.6154787593046749E9, 2021-03-11 17:05:59.304
25.0, 166522.390625, 187500.0, -37451.95703125, -7819.19873046875, -187500.015625, -9149.1494140625, 1725.4205322265625, 3511.4365234375, 0.00800000037997961, 0.9260000586509705, 0.19600000977516174, 192.0, 0.0, 0.0, 0.0, 0.0, 0.0, 0.0, 0.0, 0.0, 0.0, 1.6154787593046842E9, 2021-03-11 17:05:59.304
26.0, 166408.1875, 187500.0, -37257.51953125, -7692.375, -187500.015625, -9282.6572265625, 1583.50927734375, 3387.9208984375, 0.00800000037997961, 0.9260000586509705, 0.19600000977516174, 192.0, 0.0, 0.0, 0.0, 0.0, 0.0, 0.0, 0.0, 0.0, 0.0, 1.6154787593046904E9, 2021-03-11 17:05:59.304
27.0, 166122.546875, 187500.0, -37340.12890625, -7756.703125, -187500.015625, -9599.224609375, 1255.07275390625, 3081.813720703125, 0.00800000037997961, 0.9260000586509705, 0.19600000977516174, 192.0, 0.0, 0.0, 0.0, 0.0, 0.0, 0.0, 0.0, 0.0, 0.0, 1.6154787593047218E9, 2021-03-11 17:05:59.304
28.0, 166045.203125, 187500.0, -37595.56640625, -7907.60009765625, -187500.015625, -9661.8544921875, 1207.1953125, 3013.88671875, 0.00800000037997961, 0.9260000586509705, 0.19600000977516174, 192.0, 0.0, 0.0, 0.0, 0.0, 0.0, 0.0, 0.0, 0.0, 0.0, 1.6154787593047333E9, 2021-03-11 17:05:59.304
29.0, 166292.640625, 187500.0, -37643.15234375, -7951.6328125, -187500.015625, -9351.3212890625, 1511.0225830078125, 3290.86962890625, 0.00800000037997961, 0.9260000586509705, 0.19600000977516174, 192.0, 0.0, 0.0, 0.0, 0.0, 0.0, 0.0, 0.0, 0.0, 0.0, 1.6154787593047373E9, 2021-03-11 17:05:59.304
30.0, 166518.84375, 187500.0, -37392.76953125, -7807.6650390625, -187500.015625, -9096.51171875, 1721.1737060546875, 3508.44140625, 0.00800000037997961, 0.9260000586509705, 0.19600000977516174, 192.0, 0.0, 0.0, 0.0, 0.0, 0.0, 0.0, 0.0, 0.0, 0.0, 1.6154787593047416E9, 2021-03-11 17:05:59.304
31.0, 166415.015625, 187500.0, -37210.734375, -7685.44580078125, -187500.015625, -9244.8154296875, 1575.70849609375, 3380.43310546875, 0.00800000037997961, 0.9260000586509705, 0.19600000977516174, 192.0, 0.0, 0.0, 0.0, 0.0, 0.0, 0.0, 0.0, 0.0, 0.0, 1.6154787593047614E9, 2021-03-11 17:05:59.304
32.0, 166144.84375, 187500.0, -37323.09765625, -7758.37939453125, -187500.015625, -9570.4130859375, 1244.3438720703125, 3069.453125, 0.012000000104308128, 0.9300000667572021, 0.20400001108646393, 192.0, 0.0, 96.0, 29.0, 16.0, 6.0, 96.0, 0.0, 0.0, 0.0, 1.6154787593047671E9, 2021-03-11 17:05:59.304
33.0, 166025.171875, 187500.0, -37620.265625, -7933.52783203125, -187500.015625, -9628.9970703125, 1178.562744140625, 2980.716796875, 0.012000000104308128, 0.9300000667572021, 0.20400001108646393, 192.0, 0.0, 0.0, 0.0, 0.0, 0.0, 0.0, 0.0, 0.0, 0.0, 1.61547875930477E9, 2021-03-11 17:05:59.304
34.0, 166297.703125, 187500.0, -37612.59765625, -7942.78173828125, -187500.015625, -9287.5517578125, 1539.3646240234375, 3306.67236328125, 0.012000000104308128, 0.9300000667572021, 0.20400001108646393, 192.0, 0.0, 0.0, 0.0, 0.0, 0.0, 0.0, 0.0, 0.0, 0.0, 1.6154787593047736E9, 2021-03-11 17:05:59.304
35.0, 166530.28125, 187500.0, -37325.48828125, -7783.32421875, -187500.015625, -9065.8447265625, 1750.7896728515625, 3530.592041015625, 0.012000000104308128, 0.9300000667572021, 0.20400001108646393, 192.0, 0.0, 0.0, 0.0, 0.0, 0.0, 0.0, 0.0, 0.0, 0.0, 1.6154787593047776E9, 2021-03-11 17:05:59.304
36.0, 166407.40625, 187500.0, -37159.9296875, -7679.5673828125, -187500.015625, -9239.115234375, 1574.970947265625, 3379.382568359375, 0.012000000104308128, 0.9300000667572021, 0.20400001108646393, 192.0, 0.0, 0.0, 0.0, 0.0, 0.0, 0.0, 0.0, 0.0, 0.0, 1.6154787593047829E9, 2021-03-11 17:05:59.304
37.0, 166100.1875, 187500.0, -37301.23828125, -7775.21044921875, -187500.015625, -9580.7841796875, 1226.28369140625, 3037.311279296875, 0.012000000104308128, 0.9300000667572021, 0.20400001108646393, 192.0, 0.0, 0.0, 0.0, 0.0, 0.0, 0.0, 0.0, 0.0, 0.0, 1.615478759304794E9, 2021-03-11 17:05:59.304
38.0, 166030.078125, 187500.0, -37601.15234375, -7937.283203125, -187500.015625, -9608.947265625, 1181.1331787109375, 2984.538818359375, 0.012000000104308128, 0.9300000667572021, 0.20400001108646393, 192.0, 0.0, 0.0, 0.0, 0.0, 0.0, 0.0, 0.0, 0.0, 0.0, 1.6154787593047998E9, 2021-03-11 17:05:59.304
39.0, 166304.703125, 187500.0, -37637.7421875, -7954.31494140625, -187500.015625, -9283.7744140625, 1527.6298828125, 3306.9404296875, 0.012000000104308128, 0.9300000667572021, 0.20400001108646393, 192.0, 0.0, 0.0, 0.0, 0.0, 0.0, 0.0, 0.0, 0.0, 0.0, 1.6154787593048065E9, 2021-03-11 17:05:59.304
40.0, 166510.90625, 187500.0, -37401.953125, -7816.35986328125, -187500.015625, -9100.1552734375, 1726.0687255859375, 3497.75732421875, 0.012000000104308128, 0.9300000667572021, 0.20400001108646393, 192.0, 0.0, 0.0, 0.0, 0.0, 0.0, 0.0, 0.0, 0.0, 0.0, 1.6154787593048117E9, 2021-03-11 17:05:59.304
41.0, 166383.40625, 187500.0, -37238.47265625, -7704.02001953125, -187500.015625, -9268.150390625, 1546.830078125, 3340.1328125, 0.012000000104308128, 0.9300000667572021, 0.20400001108646393, 192.0, 0.0, 0.0, 0.0, 0.0, 0.0, 0.0, 0.0, 0.0, 0.0, 1.6154787593048167E9, 2021-03-11 17:05:59.304
42.0, 166097.640625, 187500.0, -37353.9453125, -7783.078125, -187500.015625, -9598.0625, 1213.0068359375, 3022.358154296875, 0.03200000151991844, 0.9220000505447388, 0.2120000123977661, 192.0, 1.0, 0.0, 28.0, 208.0, 6.0, 160.0, 0.0, 0.0, 0.0, 1.6154787593048224E9, 2021-03-11 17:05:59.304
43.0, 166020.859375, 187500.0, -37633.05078125, -7943.83203125, -187500.015625, -9633.0205078125, 1200.0203857421875, 2982.21435546875, 0.03200000151991844, 0.9220000505447388, 0.2120000123977661, 192.0, 0.0, 0.0, 0.0, 0.0, 0.0, 0.0, 0.0, 0.0, 0.0, 1.6154787593048267E9, 2021-03-11 17:05:59.304
44.0, 166301.6875, 187500.0, -37644.3359375, -7950.69384765625, -187500.015625, -9304.3828125, 1565.4267578125, 3304.66064453125, 0.03200000151991844, 0.9220000505447388, 0.2120000123977661, 192.0, 0.0, 0.0, 0.0, 0.0, 0.0, 0.0, 0.0, 0.0, 0.0, 1.6154787593048291E9, 2021-03-11 17:05:59.304
45.0, 166523.90625, 187500.0, -37387.89453125, -7797.98681640625, -187500.015625, -9108.6484375, 1746.073486328125, 3496.885498046875, 0.03200000151991844, 0.9220000505447388, 0.2120000123977661, 192.0, 0.0, 0.0, 0.0, 0.0, 0.0, 0.0, 0.0, 0.0, 0.0, 1.615478759304834E9, 2021-03-11 17:05:59.304
46.0, 166375.5, 187500.0, -37219.921875, -7685.22216796875, -187500.015625, -9267.0771484375, 1554.362548828125, 3345.184326171875, 0.03200000151991844, 0.9220000505447388, 0.2120000123977661, 192.0, 0.0, 0.0, 0.0, 0.0, 0.0, 0.0, 0.0, 0.0, 0.0, 1.6154787593048384E9, 2021-03-11 17:05:59.304
47.0, 166054.859375, 187500.0, -37372.29296875, -7804.5361328125, -187500.015625, -9632.685546875, 1173.8912353515625, 2987.4892578125, 0.03200000151991844, 0.9220000505447388, 0.2120000123977661, 192.0, 0.0, 0.0, 0.0, 0.0, 0.0, 0.0, 0.0, 0.0, 0.0, 1.6154787593048444E9, 2021-03-11 17:05:59.304
48.0, 166008.328125, 187500.0, -37646.83984375, -7961.6689453125, -187500.015625, -9647.7724609375, 1181.8037109375, 2978.839111328125, 0.03200000151991844, 0.9220000505447388, 0.2120000123977661, 192.0, 0.0, 0.0, 0.0, 0.0, 0.0, 0.0, 0.0, 0.0, 0.0, 1.615478759304848E9, 2021-03-11 17:05:59.304
49.0, 166313.375, 187500.0, -37628.890625, -7942.06640625, -187500.015625, -9283.4619140625, 1545.6007080078125, 3314.1376953125, 0.03200000151991844, 0.9220000505447388, 0.2120000123977661, 192.0, 0.0, 0.0, 0.0, 0.0, 0.0, 0.0, 0.0, 0.0, 0.0, 1.615478759304851E9, 2021-03-11 17:05:59.304
50.0, 166500.78125, 187500.0, -37390.46484375, -7802.56884765625, -187500.015625, -9119.82421875, 1695.3797607421875, 3465.77197265625, 0.03200000151991844, 0.9220000505447388, 0.2120000123977661, 192.0, 0.0, 0.0, 0.0, 0.0, 0.0, 0.0, 0.0, 0.0, 0.0, 1.6154787593048549E9, 2021-03-11 17:05:59.304
51.0, 166358.53125, 187500.0, -37248.109375, -7709.138671875, -187500.015625, -9307.9140625, 1524.590087890625, 3315.411865234375, 0.03200000151991844, 0.9220000505447388, 0.2120000123977661, 192.0, 0.0, 0.0, 0.0, 0.0, 0.0, 0.0, 0.0, 0.0, 0.0, 1.61547875930486E9, 2021-03-11 17:05:59.304
52.0, 166082.015625, 187500.0, -37364.8515625, -7783.63720703125, -187500.015625, -9599.6044921875, 1253.08349609375, 3036.953857421875, 0.04400000348687172, 0.9280000329017639, 0.22200001776218414, 192.0, 1.0, 96.0, 29.0, 0.0, 6.0, 240.0, 0.0, 0.0, 0.0, 1.615478759304865E9, 2021-03-11 17:05:59.304
53.0, 166040.828125, 187500.0, -37643.01953125, -7934.66796875, -187500.015625, -9600.7890625, 1254.8939208984375, 3029.443603515625, 0.04400000348687172, 0.9280000329017639, 0.22200001776218414, 192.0, 0.0, 0.0, 0.0, 0.0, 0.0, 0.0, 0.0, 0.0, 0.0, 1.6154787593048704E9, 2021-03-11 17:05:59.304
54.0, 166330.984375, 187500.0, -37633.71875, -7929.99609375, -187500.015625, -9269.3349609375, 1601.90478515625, 3341.42919921875, 0.04400000348687172, 0.9280000329017639, 0.22200001776218414, 192.0, 0.0, 0.0, 0.0, 0.0, 0.0, 0.0, 0.0, 0.0, 0.0, 1.6154787593048792E9, 2021-03-11 17:05:59.304
55.0, 166503.375, 187500.0, -37392.140625, -7793.24853515625, -187500.015625, -9115.0859375, 1748.7557373046875, 3500.97607421875, 0.04400000348687172, 0.9280000329017639, 0.22200001776218414, 192.0, 0.0, 0.0, 0.0, 0.0, 0.0, 0.0, 0.0, 0.0, 0.0, 1.6154787593049393E9, 2021-03-11 17:05:59.304
56.0, 166379.9375, 187500.0, -37241.2890625, -7688.86572265625, -187500.015625, -9295.77734375, 1550.5404052734375, 3333.7177734375, 0.04400000348687172, 0.9280000329017639, 0.22200001776218414, 192.0, 0.0, 0.0, 0.0, 0.0, 0.0, 0.0, 0.0, 0.0, 0.0, 1.615478759304945E9, 2021-03-11 17:05:59.304
57.0, 166069.96875, 187500.0, -37379.2890625, -7783.48046875, -187500.015625, -9614.736328125, 1215.554931640625, 3014.736083984375, 0.04400000348687172, 0.9280000329017639, 0.22200001776218414, 192.0, 0.0, 0.0, 0.0, 0.0, 0.0, 0.0, 0.0, 0.0, 0.0, 1.6154787593049529E9, 2021-03-11 17:05:59.304
58.0, 166042.515625, 187500.0, -37649.703125, -7928.58837890625, -187500.015625, -9588.697265625, 1229.144775390625, 3019.027587890625, 0.04400000348687172, 0.9280000329017639, 0.22200001776218414, 192.0, 0.0, 0.0, 0.0, 0.0, 0.0, 0.0, 0.0, 0.0, 0.0, 1.6154787593049583E9, 2021-03-11 17:05:59.304
59.0, 166336.40625, 187500.0, -37633.16015625, -7921.56982421875, -187500.015625, -9256.169921875, 1589.1866455078125, 3347.01708984375, 0.04400000348687172, 0.9280000329017639, 0.22200001776218414, 192.0, 0.0, 0.0, 0.0, 0.0, 0.0, 0.0, 0.0, 0.0, 0.0, 1.6154787593049648E9, 2021-03-11 17:05:59.304
60.0, 166511.75, 187500.0, -37384.9453125, -7773.1318359375, -187500.015625, -9092.7568359375, 1759.01513671875, 3503.74755859375, 0.04400000348687172, 0.9280000329017639, 0.22200001776218414, 192.0, 0.0, 0.0, 0.0, 0.0, 0.0, 0.0, 0.0, 0.0, 0.0, 1.615478759304971E9, 2021-03-11 17:05:59.304
61.0, 166345.453125, 187500.0, -37255.125, -7695.03466796875, -187500.015625, -9303.1982421875, 1531.5638427734375, 3314.495361328125, 0.04400000348687172, 0.9280000329017639, 0.22200001776218414, 192.0, 0.0, 0.0, 0.0, 0.0, 0.0, 0.0, 0.0, 0.0, 0.0, 1.615478759304974E9, 2021-03-11 17:05:59.304
62.0, 166061.59375, 187500.0, -37381.0546875, -7793.20361328125, -187500.015625, -9619.2294921875, 1215.353759765625, 3007.069580078125, 0.030000001192092896, 0.9220000505447388, 0.23400001227855682, 192.0, 0.0, 240.0, 28.0, 208.0, 7.0, 80.0, 0.0, 0.0, 0.0, 1.6154787593049772E9, 2021-03-11 17:05:59.304
63.0, 166047.8125, 187500.0, -37643.77734375, -7945.28466796875, -187500.015625, -9596.51953125, 1236.2525634765625, 3019.541748046875, 0.030000001192092896, 0.9220000505447388, 0.23400001227855682, 192.0, 0.0, 0.0, 0.0, 0.0, 0.0, 0.0, 0.0, 0.0, 0.0, 1.6154787593049805E9, 2021-03-11 17:05:59.304
64.0, 166349.140625, 187500.0, -37594.515625, -7922.95556640625, -187500.015625, -9250.42578125, 1590.147705078125, 3353.72265625, 0.030000001192092896, 0.9220000505447388, 0.23400001227855682, 192.0, 0.0, 0.0, 0.0, 0.0, 0.0, 0.0, 0.0, 0.0, 0.0, 1.6154787593049843E9, 2021-03-11 17:05:59.304
65.0, 166517.65625, 187500.0, -37318.94140625, -7761.5537109375, -187500.015625, -9094.74609375, 1751.23681640625, 3512.397705078125, 0.030000001192092896, 0.9220000505447388, 0.23400001227855682, 192.0, 0.0, 0.0, 0.0, 0.0, 0.0, 0.0, 0.0, 0.0, 0.0, 1.61547875930499E9, 2021-03-11 17:05:59.304
66.0, 166343.0, 187500.0, -37191.04296875, -7686.07177734375, -187500.015625, -9314.5751953125, 1525.640625, 3314.85302734375, 0.030000001192092896, 0.9220000505447388, 0.23400001227855682, 192.0, 0.0, 0.0, 0.0, 0.0, 0.0, 0.0, 0.0, 0.0, 0.0, 1.615478759304996E9, 2021-03-11 17:05:59.304
67.0, 166054.09375, 187500.0, -37340.33203125, -7798.3447265625, -187500.015625, -9638.98828125, 1190.968017578125, 2997.9052734375, 0.030000001192092896, 0.9220000505447388, 0.23400001227855682, 192.0, 0.0, 0.0, 0.0, 0.0, 0.0, 0.0, 0.0, 0.0, 0.0, 1.6154787593050032E9, 2021-03-11 17:05:59.305
68.0, 166055.375, 187500.0, -37597.95703125, -7941.2841796875, -187500.015625, -9592.2734375, 1227.3118896484375, 3023.900390625, 0.030000001192092896, 0.9220000505447388, 0.23400001227855682, 192.0, 0.0, 0.0, 0.0, 0.0, 0.0, 0.0, 0.0, 0.0, 0.0, 1.6154787593050077E9, 2021-03-11 17:05:59.305
69.0, 166329.8125, 187500.0, -37540.40234375, -7918.060546875, -187500.015625, -9250.068359375, 1592.6287841796875, 3365.077392578125, 0.030000001192092896, 0.9220000505447388, 0.23400001227855682, 192.0, 0.0, 0.0, 0.0, 0.0, 0.0, 0.0, 0.0, 0.0, 0.0, 1.6154787593050103E9, 2021-03-11 17:05:59.305
70.0, 166491.015625, 187500.0, -37276.5390625, -7766.76171875, -187500.015625, -9116.962890625, 1737.9375, 3510.36376953125, 0.030000001192092896, 0.9220000505447388, 0.23400001227855682, 192.0, 0.0, 0.0, 0.0, 0.0, 0.0, 0.0, 0.0, 0.0, 0.0, 1.615478759305014E9, 2021-03-11 17:05:59.305
71.0, 166330.703125, 187500.0, -37157.60546875, -7683.68017578125, -187500.015625, -9318.978515625, 1507.5804443359375, 3305.688720703125, 0.030000001192092896, 0.9220000505447388, 0.23400001227855682, 192.0, 0.0, 0.0, 0.0, 0.0, 0.0, 0.0, 0.0, 0.0, 0.0, 1.615478759305019E9, 2021-03-11 17:05:59.305
72.0, 166058.390625, 187500.0, -37298.33203125, -7776.9091796875, -187500.015625, -9618.71484375, 1177.10986328125, 3016.948974609375, 0.024000000208616257, 0.9360000491142273, 0.22600001096725464, 192.0, 0.0, 192.0, 29.0, 64.0, 7.0, 16.0, 0.0, 0.0, 0.0, 1.6154787593050213E9, 2021-03-11 17:05:59.305
73.0, 166055.390625, 187500.0, -37557.0078125, -7928.4765625, -187500.015625, -9571.9326171875, 1257.129150390625, 3060.199462890625, 0.024000000208616257, 0.9360000491142273, 0.22600001096725464, 192.0, 0.0, 0.0, 0.0, 0.0, 0.0, 0.0, 0.0, 0.0, 0.0, 1.615478759305026E9, 2021-03-11 17:05:59.305
74.0, 166359.734375, 187500.0, -37492.97265625, -7906.57177734375, -187500.015625, -9238.2890625, 1620.7249755859375, 3382.846923828125, 0.024000000208616257, 0.9360000491142273, 0.22600001096725464, 192.0, 0.0, 0.0, 0.0, 0.0, 0.0, 0.0, 0.0, 0.0, 0.0, 1.6154787593050296E9, 2021-03-11 17:05:59.305
75.0, 166504.234375, 187500.0, -37239.92578125, -7760.41357421875, -187500.015625, -9115.0185546875, 1729.3543701171875, 3508.12841796875, 0.024000000208616257, 0.9360000491142273, 0.22600001096725464, 192.0, 0.0, 0.0, 0.0, 0.0, 0.0, 0.0, 0.0, 0.0, 0.0, 1.6154787593050404E9, 2021-03-11 17:05:59.305
76.0, 166322.65625, 187500.0, -37125.62109375, -7680.10400390625, -187500.015625, -9319.58203125, 1497.25390625, 3306.44873046875, 0.024000000208616257, 0.9360000491142273, 0.22600001096725464, 192.0, 0.0, 0.0, 0.0, 0.0, 0.0, 0.0, 0.0, 0.0, 0.0, 1.61547875930505E9, 2021-03-11 17:05:59.305
77.0, 166042.65625, 187500.0, -37284.02734375, -7788.0849609375, -187500.015625, -9630.673828125, 1194.3206787109375, 3004.0966796875, 0.024000000208616257, 0.9360000491142273, 0.22600001096725464, 192.0, 0.0, 0.0, 0.0, 0.0, 0.0, 0.0, 0.0, 0.0, 0.0, 1.6154787593050573E9, 2021-03-11 17:05:59.305
78.0, 166064.296875, 187500.0, -37539.0390625, -7935.33837890625, -187500.015625, -9561.583984375, 1252.9493408203125, 3052.6669921875, 0.024000000208616257, 0.9360000491142273, 0.22600001096725464, 192.0, 0.0, 0.0, 0.0, 0.0, 0.0, 0.0, 0.0, 0.0, 0.0, 1.6154787593050952E9, 2021-03-11 17:05:59.305
79.0, 166380.703125, 187500.0, -37471.625, -7905.4091796875, -187500.015625, -9219.46875, 1595.2662353515625, 3379.158935546875, 0.024000000208616257, 0.9360000491142273, 0.22600001096725464, 192.0, 0.0, 0.0, 0.0, 0.0, 0.0, 0.0, 0.0, 0.0, 0.0, 1.6154787593051221E9, 2021-03-11 17:05:59.305
80.0, 166521.828125, 187500.0, -37234.33984375, -7760.99462890625, -187500.015625, -9107.8212890625, 1718.7596435546875, 3495.387939453125, 0.024000000208616257, 0.9360000491142273, 0.22600001096725464, 192.0, 0.0, 0.0, 0.0, 0.0, 0.0, 0.0, 0.0, 0.0, 0.0, 1.6154787593051372E9, 2021-03-11 17:05:59.305
81.0, 166305.21875, 187500.0, -37147.45703125, -7693.2021484375, -187500.015625, -9338.5810546875, 1492.8505859375, 3278.06201171875, 0.024000000208616257, 0.9360000491142273, 0.22600001096725464, 192.0, 0.0, 0.0, 0.0, 0.0, 0.0, 0.0, 0.0, 0.0, 0.0, 1.615478759305158E9, 2021-03-11 17:05:59.305
82.0, 166035.4375, 187500.0, -37316.21484375, -7801.4736328125, -187500.015625, -9632.39453125, 1178.5404052734375, 2978.705078125, 0.012000000104308128, 0.9420000314712524, 0.21800000965595245, 192.0, 0.0, 96.0, 29.0, 112.0, 6.0, 208.0, 0.0, 0.0, 0.0, 1.6154787593051705E9, 2021-03-11 17:05:59.305
83.0, 166075.3125, 187500.0, -37566.0390625, -7939.8310546875, -187500.015625, -9543.859375, 1249.373046875, 3046.69921875, 0.012000000104308128, 0.9420000314712524, 0.21800000965595245, 192.0, 0.0, 0.0, 0.0, 0.0, 0.0, 0.0, 0.0, 0.0, 0.0, 1.615478759305179E9, 2021-03-11 17:05:59.305
84.0, 166388.28125, 187500.0, -37481.9296875, -7898.32373046875, -187500.015625, -9195.6865234375, 1640.327392578125, 3393.061767578125, 0.012000000104308128, 0.9420000314712524, 0.21800000965595245, 192.0, 0.0, 0.0, 0.0, 0.0, 0.0, 0.0, 0.0, 0.0, 0.0, 1.6154787593051915E9, 2021-03-11 17:05:59.305
85.0, 166514.859375, 187500.0, -37232.5078125, -7747.7626953125, -187500.015625, -9081.982421875, 1737.1104736328125, 3501.8701171875, 0.012000000104308128, 0.9420000314712524, 0.21800000965595245, 192.0, 0.0, 0.0, 0.0, 0.0, 0.0, 0.0, 0.0, 0.0, 0.0, 1.6154787593051987E9, 2021-03-11 17:05:59.305
86.0, 166327.796875, 187500.0, -37140.70703125, -7684.73046875, -187500.015625, -9316.005859375, 1458.9876708984375, 3281.3701171875, 0.012000000104308128, 0.9420000314712524, 0.21800000965595245, 192.0, 0.0, 0.0, 0.0, 0.0, 0.0, 0.0, 0.0, 0.0, 0.0, 1.6154787593052115E9, 2021-03-11 17:05:59.305
87.0, 166041.734375, 187500.0, -37321.95703125, -7806.79345703125, -187500.015625, -9630.6953125, 1146.1080322265625, 2979.21923828125, 0.012000000104308128, 0.9420000314712524, 0.21800000965595245, 192.0, 0.0, 0.0, 0.0, 0.0, 0.0, 0.0, 0.0, 0.0, 0.0, 1.615478759305222E9, 2021-03-11 17:05:59.305
88.0, 166069.359375, 187500.0, -37581.0390625, -7954.0693359375, -187500.015625, -9564.1767578125, 1230.3070068359375, 3040.26171875, 0.012000000104308128, 0.9420000314712524, 0.21800000965595245, 192.0, 0.0, 0.0, 0.0, 0.0, 0.0, 0.0, 0.0, 0.0, 0.0, 1.6154787593052285E9, 2021-03-11 17:05:59.305
89.0, 166371.046875, 187500.0, -37501.33203125, -7927.35888671875, -187500.015625, -9259.43359375, 1589.767822265625, 3370.53125, 0.012000000104308128, 0.9420000314712524, 0.21800000965595245, 192.0, 0.0, 0.0, 0.0, 0.0, 0.0, 0.0, 0.0, 0.0, 0.0, 1.6154787593052385E9, 2021-03-11 17:05:59.305
90.0, 166493.09375, 187500.0, -37241.55859375, -7775.5458984375, -187500.015625, -9190.74609375, 1686.4390869140625, 3478.132568359375, 0.012000000104308128, 0.9420000314712524, 0.21800000965595245, 192.0, 0.0, 0.0, 0.0, 0.0, 0.0, 0.0, 0.0, 0.0, 0.0, 1.6154787593052444E9, 2021-03-11 17:05:59.305
91.0, 166295.390625, 187500.0, -37155.4140625, -7710.61376953125, -187500.015625, -9426.19921875, 1444.1014404296875, 3256.716064453125, 0.012000000104308128, 0.9420000314712524, 0.21800000965595245, 192.0, 0.0, 0.0, 0.0, 0.0, 0.0, 0.0, 0.0, 0.0, 0.0, 1.6154787593052537E9, 2021-03-11 17:05:59.305
92.0, 166027.140625, 187500.0, -37339.79296875, -7830.642578125, -187500.015625, -9724.9755859375, 1132.0263671875, 2967.01513671875, 0.020000001415610313, 0.9640000462532043, 0.1980000138282776, 192.0, 0.0, 160.0, 30.0, 32.0, 6.0, 48.0, 0.0, 0.0, 0.0, 1.6154787593052607E9, 2021-03-11 17:05:59.305
93.0, 166083.21875, 187500.0, -37585.26171875, -7962.33935546875, -187500.015625, -9620.2353515625, 1238.420654296875, 3057.8525390625, 0.020000001415610313, 0.9640000462532043, 0.1980000138282776, 192.0, 0.0, 0.0, 0.0, 0.0, 0.0, 0.0, 0.0, 0.0, 0.0, 1.6154787593052669E9, 2021-03-11 17:05:59.305
94.0, 166400.703125, 187500.0, -37498.3359375, -7919.6025390625, -187500.015625, -9286.814453125, 1611.4266357421875, 3384.12109375, 0.020000001415610313, 0.9640000462532043, 0.1980000138282776, 192.0, 0.0, 0.0, 0.0, 0.0, 0.0, 0.0, 0.0, 0.0, 0.0, 1.6154787593052769E9, 2021-03-11 17:05:59.305
95.0, 166518.875, 187500.0, -37242.609375, -7763.1181640625, -187500.015625, -9186.0751953125, 1687.7354736328125, 3482.98291015625, 0.020000001415610313, 0.9640000462532043, 0.1980000138282776, 192.0, 0.0, 0.0, 0.0, 0.0, 0.0, 0.0, 0.0, 0.0, 0.0, 1.6154787593052895E9, 2021-03-11 17:05:59.305
96.0, 166312.265625, 187500.0, -37145.19921875, -7685.22216796875, -187500.015625, -9361.0888671875, 1445.8001708984375, 3273.07763671875, 0.020000001415610313, 0.9640000462532043, 0.1980000138282776, 192.0, 0.0, 0.0, 0.0, 0.0, 0.0, 0.0, 0.0, 0.0, 0.0, 1.6154787593052976E9, 2021-03-11 17:05:59.305
97.0, 166049.8125, 187500.0, -37327.34375, -7803.97705078125, -187500.015625, -9634.0927734375, 1151.3607177734375, 2982.52734375, 0.020000001415610313, 0.9640000462532043, 0.1980000138282776, 192.0, 0.0, 0.0, 0.0, 0.0, 0.0, 0.0, 0.0, 0.0, 0.0, 1.615478759305306E9, 2021-03-11 17:05:59.305
98.0, 166103.234375, 187500.0, -37579.47265625, -7946.8720703125, -187500.015625, -9533.533203125, 1259.6995849609375, 3062.39013671875, 0.020000001415610313, 0.9640000462532043, 0.1980000138282776, 192.0, 0.0, 0.0, 0.0, 0.0, 0.0, 0.0, 0.0, 0.0, 0.0, 1.6154787593053107E9, 2021-03-11 17:05:59.305
99.0, 166413.25, 187500.0, -37485.50390625, -7905.0517578125, -187500.015625, -9190.34375, 1600.9659423828125, 3389.261962890625, 0.020000001415610313, 0.9640000462532043, 0.1980000138282776, 192.0, 0.0, 0.0, 0.0, 0.0, 0.0, 0.0, 0.0, 0.0, 0.0, 1.6154787593053195E9, 2021-03-11 17:05:59.305
100.0, 166517.890625, 187500.0, -37234.51953125, -7749.8857421875, -187500.015625, -9113.2978515625, 1698.0843505859375, 3474.55615234375, 0.020000001415610313, 0.9640000462532043, 0.1980000138282776, 192.0, 0.0, 0.0, 0.0, 0.0, 0.0, 0.0, 0.0, 0.0, 0.0, 1.6154787593053253E9, 2021-03-11 17:05:59.305
101.0, 166315.171875, 187500.0, -37165.00390625, -7688.70947265625, -187500.015625, -9337.4853515625, 1433.238525390625, 3243.08154296875, 0.036000002175569534, 0.9720000624656677, 0.19600000977516174, 192.0, 1.0, 32.0, 30.0, 96.0, 6.0, 32.0, 0.0, 0.0, 0.0, 1.6154787593053803E9, 2021-03-11 17:05:59.305
102.0, 166053.65625, 187500.0, -37354.2578125, -7810.548828125, -187500.015625, -9599.8505859375, 1148.52197265625, 2966.389404296875, 0.036000002175569534, 0.9720000624656677, 0.19600000977516174, 192.0, 0.0, 0.0, 0.0, 0.0, 0.0, 0.0, 0.0, 0.0, 0.0, 1.6154787593053844E9, 2021-03-11 17:05:59.305
103.0, 166135.75, 187500.0, -37575.60546875, -7930.91259765625, -187500.015625, -9456.44140625, 1290.299072265625, 3087.6474609375, 0.036000002175569534, 0.9720000624656677, 0.19600000977516174, 192.0, 0.0, 0.0, 0.0, 0.0, 0.0, 0.0, 0.0, 0.0, 0.0, 1.6154787593053918E9, 2021-03-11 17:05:59.305
104.0, 166453.53125, 187500.0, -37469.8359375, -7880.0400390625, -187500.015625, -9106.1669921875, 1602.754150390625, 3410.272705078125, 0.036000002175569534, 0.9720000624656677, 0.19600000977516174, 192.0, 0.0, 0.0, 0.0, 0.0, 0.0, 0.0, 0.0, 0.0, 0.0, 1.615478759305397E9, 2021-03-11 17:05:59.305
105.0, 166550.390625, 187500.0, -37225.6015625, -7734.9775390625, -187500.015625, -9041.3916015625, 1683.421630859375, 3486.916748046875, 0.036000002175569534, 0.9720000624656677, 0.19600000977516174, 192.0, 0.0, 0.0, 0.0, 0.0, 0.0, 0.0, 0.0, 0.0, 0.0, 1.615478759305405E9, 2021-03-11 17:05:59.305
106.0, 166299.453125, 187500.0, -37165.7421875, -7686.0048828125, -187500.015625, -9292.0888671875, 1416.5640869140625, 3242.88037109375, 0.036000002175569534, 0.9720000624656677, 0.19600000977516174, 192.0, 0.0, 0.0, 0.0, 0.0, 0.0, 0.0, 0.0, 0.0, 0.0, 1.6154787593054118E9, 2021-03-11 17:05:59.305
107.0, 166027.171875, 187500.0, -37382.21875, -7825.9267578125, -187500.015625, -9582.013671875, 1126.0584716796875, 2949.44677734375, 0.036000002175569534, 0.9720000624656677, 0.19600000977516174, 192.0, 0.0, 0.0, 0.0, 0.0, 0.0, 0.0, 0.0, 0.0, 0.0, 1.6154787593054168E9, 2021-03-11 17:05:59.305
108.0, 166135.75, 187500.0, -37600.55078125, -7934.01953125, -187500.015625, -9423.31640625, 1322.5302734375, 3101.505615234375, 0.036000002175569534, 0.9720000624656677, 0.19600000977516174, 192.0, 0.0, 0.0, 0.0, 0.0, 0.0, 0.0, 0.0, 0.0, 0.0, 1.6154787593054233E9, 2021-03-11 17:05:59.305
109.0, 166447.515625, 187500.0, -37495.71875, -7869.60205078125, -187500.015625, -9070.203125, 1688.16015625, 3441.051025390625, 0.036000002175569534, 0.9720000624656677, 0.19600000977516174, 192.0, 0.0, 0.0, 0.0, 0.0, 0.0, 0.0, 0.0, 0.0, 0.0, 1.6154787593054276E9, 2021-03-11 17:05:59.305
110.0, 166528.6875, 187500.0, -37248.30859375, -7721.65576171875, -187500.015625, -9009.384765625, 1738.6080322265625, 3497.399658203125, 0.036000002175569534, 0.9720000624656677, 0.19600000977516174, 192.0, 0.0, 0.0, 0.0, 0.0, 0.0, 0.0, 0.0, 0.0, 0.0, 1.615478759305434E9, 2021-03-11 17:05:59.305
111.0, 166303.640625, 187500.0, -37204.5, -7689.40234375, -187500.015625, -9258.62890625, 1445.4873046875, 3243.551025390625, 0.03400000184774399, 0.9360000491142273, 0.1900000125169754, 192.0, 1.0, 16.0, 29.0, 64.0, 5.0, 240.0, 0.0, 0.0, 0.0, 1.615478759305444E9, 2021-03-11 17:05:59.305
112.0, 166043.421875, 187500.0, -37417.109375, -7823.6689453125, -187500.015625, -9527.9228515625, 1157.12744140625, 2970.256103515625, 0.03400000184774399, 0.9360000491142273, 0.1900000125169754, 192.0, 0.0, 0.0, 0.0, 0.0, 0.0, 0.0, 0.0, 0.0, 0.0, 1.615478759305447E9, 2021-03-11 17:05:59.305
113.0, 166116.234375, 187500.0, -37675.33984375, -7960.70751953125, -187500.015625, -9405.9716796875, 1320.2056884765625, 3084.76416015625, 0.03400000184774399, 0.9360000491142273, 0.1900000125169754, 192.0, 0.0, 0.0, 0.0, 0.0, 0.0, 0.0, 0.0, 0.0, 0.0, 1.6154787593054504E9, 2021-03-11 17:05:59.305
114.0, 166419.546875, 187500.0, -37581.41796875, -7912.0029296875, -187500.015625, -9051.3388671875, 1699.939453125, 3414.653564453125, 0.03400000184774399, 0.9360000491142273, 0.1900000125169754, 192.0, 0.0, 0.0, 0.0, 0.0, 0.0, 0.0, 0.0, 0.0, 0.0, 1.6154787593054535E9, 2021-03-11 17:05:59.305
115.0, 166492.90625, 187500.0, -37339.90625, -7754.9375, -187500.015625, -8982.31640625, 1713.685791015625, 3464.497802734375, 0.03400000184774399, 0.9360000491142273, 0.1900000125169754, 192.0, 0.0, 0.0, 0.0, 0.0, 0.0, 0.0, 0.0, 0.0, 0.0, 1.6154787597850766E9, 2021-03-11 17:05:59.785
116.0, 166270.890625, 187500.0, -37292.74609375, -7731.5126953125, -187500.015625, -9248.525390625, 1424.78955078125, 3208.927978515625, 0.03400000184774399, 0.9360000491142273, 0.1900000125169754, 192.0, 0.0, 0.0, 0.0, 0.0, 0.0, 0.0, 0.0, 0.0, 0.0, 1.615478759785239E9, 2021-03-11 17:05:59.785
117.0, 166012.71875, 187500.0, -37492.12109375, -7871.14404296875, -187500.015625, -9513.8408203125, 1176.573486328125, 2955.50390625, 0.03400000184774399, 0.9360000491142273, 0.1900000125169754, 192.0, 0.0, 0.0, 0.0, 0.0, 0.0, 0.0, 0.0, 0.0, 0.0, 1.615478759785244E9, 2021-03-11 17:05:59.785
118.0, 166128.984375, 187500.0, -37659.15625, -7955.1865234375, -187500.015625, -9347.9462890625, 1368.4407958984375, 3116.74951171875, 0.03400000184774399, 0.9360000491142273, 0.1900000125169754, 192.0, 0.0, 0.0, 0.0, 0.0, 0.0, 0.0, 0.0, 0.0, 0.0, 1.6154787597852476E9, 2021-03-11 17:05:59.785
119.0, 166436.8125, 187500.0, -37529.5390625, -7868.35009765625, -187500.015625, -9013.0498046875, 1727.0521240234375, 3444.40380859375, 0.03400000184774399, 0.9360000491142273, 0.1900000125169754, 192.0, 0.0, 0.0, 0.0, 0.0, 0.0, 0.0, 0.0, 0.0, 0.0, 1.6154787597852511E9, 2021-03-11 17:05:59.785
120.0, 166511.03125, 187500.0, -37265.54296875, -7728.67431640625, -187500.015625, -8971.38671875, 1755.282470703125, 3491.208251953125, 0.03400000184774399, 0.9360000491142273, 0.1900000125169754, 192.0, 0.0, 0.0, 0.0, 0.0, 0.0, 0.0, 0.0, 0.0, 0.0, 1.6154787597852545E9, 2021-03-11 17:05:59.785
121.0, 166306.390625, 187500.0, -37190.93359375, -7674.404296875, -187500.015625, -9225.3466796875, 1486.74853515625, 3247.68603515625, 0.03800000250339508, 0.940000057220459, 0.1940000057220459, 192.0, 1.0, 48.0, 29.0, 96.0, 6.0, 16.0, 0.0, 0.0, 0.0, 1.6154787597852578E9, 2021-03-11 17:05:59.785
122.0, 166072.15625, 187500.0, -37416.328125, -7798.5458984375, -187500.015625, -9479.642578125, 1243.718017578125, 3006.82373046875, 0.03800000250339508, 0.940000057220459, 0.1940000057220459, 192.0, 0.0, 0.0, 0.0, 0.0, 0.0, 0.0, 0.0, 0.0, 0.0, 1.615478759785261E9, 2021-03-11 17:05:59.785
123.0, 166167.90625, 187500.0, -37645.41015625, -7916.71923828125, -187500.015625, -9318.6435546875, 1383.0811767578125, 3136.93310546875, 0.03800000250339508, 0.940000057220459, 0.1940000057220459, 192.0, 0.0, 0.0, 0.0, 0.0, 0.0, 0.0, 0.0, 0.0, 0.0, 1.6154787597852645E9, 2021-03-11 17:05:59.785
124.0, 166473.4375, 187500.0, -37532.3984375, -7854.02294921875, -187500.015625, -8976.482421875, 1736.5963134765625, 3454.484375, 0.03800000250339508, 0.940000057220459, 0.1940000057220459, 192.0, 0.0, 0.0, 0.0, 0.0, 0.0, 0.0, 0.0, 0.0, 0.0, 1.6154787597852676E9, 2021-03-11 17:05:59.785
125.0, 166527.578125, 187500.0, -37301.19140625, -7699.974609375, -187500.015625, -8944.5419921875, 1774.2813720703125, 3495.119873046875, 0.03800000250339508, 0.940000057220459, 0.1940000057220459, 192.0, 0.0, 0.0, 0.0, 0.0, 0.0, 0.0, 0.0, 0.0, 0.0, 1.6154787597852833E9, 2021-03-11 17:05:59.785
126.0, 166293.390625, 187500.0, -37276.96484375, -7677.533203125, -187500.015625, -9230.5322265625, 1493.9681396484375, 3232.218505859375, 0.03800000250339508, 0.940000057220459, 0.1940000057220459, 192.0, 0.0, 0.0, 0.0, 0.0, 0.0, 0.0, 0.0, 0.0, 0.0, 1.6154787597852867E9, 2021-03-11 17:05:59.785
127.0, 166053.109375, 187500.0, -37510.67578125, -7814.63916015625, -187500.015625, -9493.9921875, 1247.137939453125, 2981.23095703125, 0.03800000250339508, 0.940000057220459, 0.1940000057220459, 192.0, 0.0, 0.0, 0.0, 0.0, 0.0, 0.0, 0.0, 0.0, 0.0, 1.615478759785291E9, 2021-03-11 17:05:59.785
128.0, 166158.640625, 187500.0, -37754.734375, -7941.4404296875, -187500.015625, -9353.556640625, 1416.2735595703125, 3116.92822265625, 0.03800000250339508, 0.940000057220459, 0.1940000057220459, 192.0, 0.0, 0.0, 0.0, 0.0, 0.0, 0.0, 0.0, 0.0, 0.0, 1.6154787597852938E9, 2021-03-11 17:05:59.785
129.0, 166485.328125, 187500.0, -37624.33203125, -7864.0361328125, -187500.015625, -9049.103515625, 1772.42626953125, 3440.4697265625, 0.03800000250339508, 0.940000057220459, 0.1940000057220459, 192.0, 0.0, 0.0, 0.0, 0.0, 0.0, 0.0, 0.0, 0.0, 0.0, 1.615478759785297E9, 2021-03-11 17:05:59.785
130.0, 166539.328125, 187500.0, -37359.734375, -7695.951171875, -187500.015625, -9018.615234375, 1763.060791015625, 3487.632080078125, 0.03800000250339508, 0.940000057220459, 0.1940000057220459, 192.0, 0.0, 0.0, 0.0, 0.0, 0.0, 0.0, 0.0, 0.0, 0.0, 1.6154787597853012E9, 2021-03-11 17:05:59.785
131.0, 166270.890625, 187500.0, -37326.00390625, -7671.3642578125, -187500.015625, -9301.1416015625, 1462.228759765625, 3215.11962890625, 0.04400000348687172, 0.89000004529953, 0.18400001525878906, 192.0, 1.0, 96.0, 27.0, 208.0, 5.0, 192.0, 0.0, 0.0, 0.0, 1.6154787597853043E9, 2021-03-11 17:05:59.785
132.0, 166029.953125, 187500.0, -37563.15625, -7822.64111328125, -187500.015625, -9536.3046875, 1243.27099609375, 2967.149169921875, 0.04400000348687172, 0.89000004529953, 0.18400001525878906, 192.0, 0.0, 0.0, 0.0, 0.0, 0.0, 0.0, 0.0, 0.0, 0.0, 1.615478759785308E9, 2021-03-11 17:05:59.785
133.0, 166154.390625, 187500.0, -37796.5078125, -7933.3935546875, -187500.015625, -9351.947265625, 1457.624267578125, 3150.0087890625, 0.04400000348687172, 0.89000004529953, 0.18400001525878906, 192.0, 0.0, 0.0, 0.0, 0.0, 0.0, 0.0, 0.0, 0.0, 0.0, 1.6154787597853107E9, 2021-03-11 17:05:59.785
134.0, 166461.421875, 187500.0, -37637.5859375, -7854.78271484375, -187500.015625, -9037.8603515625, 1767.665283203125, 3456.428955078125, 0.04400000348687172, 0.89000004529953, 0.18400001525878906, 192.0, 0.0, 0.0, 0.0, 0.0, 0.0, 0.0, 0.0, 0.0, 0.0, 1.6154787597853136E9, 2021-03-11 17:05:59.785
135.0, 166499.453125, 187500.0, -37361.54296875, -7706.45654296875, -187500.015625, -9042.353515625, 1750.4991455078125, 3456.18310546875, 0.04400000348687172, 0.89000004529953, 0.18400001525878906, 192.0, 0.0, 0.0, 0.0, 0.0, 0.0, 0.0, 0.0, 0.0, 0.0, 1.6154787597853167E9, 2021-03-11 17:05:59.785
136.0, 166257.984375, 187500.0, -37310.3125, -7676.9970703125, -187500.015625, -9314.240234375, 1458.2054443359375, 3207.87744140625, 0.04400000348687172, 0.89000004529953, 0.18400001525878906, 192.0, 0.0, 0.0, 0.0, 0.0, 0.0, 0.0, 0.0, 0.0, 0.0, 1.6154787597853196E9, 2021-03-11 17:05:59.785
137.0, 166031.40625, 187500.0, -37514.51953125, -7812.8955078125, -187500.015625, -9522.669921875, 1223.08740234375, 2998.352294921875, 0.04400000348687172, 0.89000004529953, 0.18400001525878906, 192.0, 0.0, 0.0, 0.0, 0.0, 0.0, 0.0, 0.0, 0.0, 0.0, 1.6154787597853224E9, 2021-03-11 17:05:59.785
138.0, 166185.171875, 187500.0, -37699.5, -7902.212890625, -187500.015625, -9296.693359375, 1452.3939208984375, 3194.466552734375, 0.04400000348687172, 0.89000004529953, 0.18400001525878906, 192.0, 0.0, 0.0, 0.0, 0.0, 0.0, 0.0, 0.0, 0.0, 0.0, 1.6154787597853253E9, 2021-03-11 17:05:59.785
139.0, 166486.8125, 187500.0, -37557.3671875, -7828.876953125, -187500.015625, -8985.78125, 1758.61279296875, 3481.6640625, 0.04400000348687172, 0.89000004529953, 0.18400001525878906, 192.0, 0.0, 0.0, 0.0, 0.0, 0.0, 0.0, 0.0, 0.0, 0.0, 1.6154787597853284E9, 2021-03-11 17:05:59.785
140.0, 166527.734375, 187500.0, -37325.53515625, -7692.84423828125, -187500.015625, -8998.431640625, 1733.64599609375, 3461.033447265625, 0.04400000348687172, 0.89000004529953, 0.18400001525878906, 192.0, 0.0, 0.0, 0.0, 0.0, 0.0, 0.0, 0.0, 0.0, 0.0, 1.6154787597853312E9, 2021-03-11 17:05:59.785
141.0, 166247.421875, 187500.0, -37303.36328125, -7679.544921875, -187500.015625, -9287.060546875, 1451.96923828125, 3187.045654296875, 0.030000001192092896, 0.9180000424385071, 0.20200000703334808, 192.0, 0.0, 240.0, 28.0, 176.0, 6.0, 80.0, 0.0, 0.0, 0.0, 1.615478759785334E9, 2021-03-11 17:05:59.785
142.0, 166006.421875, 187500.0, -37558.171875, -7834.75537109375, -187500.015625, -9519.6298828125, 1233.3021240234375, 2954.587646484375, 0.030000001192092896, 0.9180000424385071, 0.20200000703334808, 192.0, 0.0, 0.0, 0.0, 0.0, 0.0, 0.0, 0.0, 0.0, 0.0, 1.6154787597853372E9, 2021-03-11 17:05:59.785
143.0, 166184.609375, 187500.0, -37738.86328125, -7916.451171875, -187500.015625, -9305.0087890625, 1470.409423828125, 3164.6044921875, 0.030000001192092896, 0.9180000424385071, 0.20200000703334808, 192.0, 0.0, 0.0, 0.0, 0.0, 0.0, 0.0, 0.0, 0.0, 0.0, 1.6154787597853403E9, 2021-03-11 17:05:59.785
144.0, 166489.171875, 187500.0, -37586.06640625, -7824.65234375, -187500.015625, -9001.9638671875, 1767.7099609375, 3476.120849609375, 0.030000001192092896, 0.9180000424385071, 0.20200000703334808, 192.0, 0.0, 0.0, 0.0, 0.0, 0.0, 0.0, 0.0, 0.0, 0.0, 1.6154787597853444E9, 2021-03-11 17:05:59.785
145.0, 166508.625, 187500.0, -37352.3359375, -7682.16015625, -187500.015625, -9031.802734375, 1749.1134033203125, 3473.17041015625, 0.030000001192092896, 0.9180000424385071, 0.20200000703334808, 192.0, 0.0, 0.0, 0.0, 0.0, 0.0, 0.0, 0.0, 0.0, 0.0, 1.6154787597853477E9, 2021-03-11 17:05:59.785
146.0, 166254.578125, 187500.0, -37332.91015625, -7674.1806640625, -187500.015625, -9328.2099609375, 1452.215087890625, 3197.70751953125, 0.030000001192092896, 0.9180000424385071, 0.20200000703334808, 192.0, 0.0, 0.0, 0.0, 0.0, 0.0, 0.0, 0.0, 0.0, 0.0, 1.6154787597853508E9, 2021-03-11 17:05:59.785
147.0, 166036.484375, 187500.0, -37569.078125, -7821.4560546875, -187500.015625, -9551.0341796875, 1250.6470947265625, 2979.3310546875, 0.030000001192092896, 0.9180000424385071, 0.20200000703334808, 192.0, 0.0, 0.0, 0.0, 0.0, 0.0, 0.0, 0.0, 0.0, 0.0, 1.6154787597853544E9, 2021-03-11 17:05:59.785
148.0, 166201.625, 187500.0, -37745.2109375, -7918.14990234375, -187500.015625, -9347.4326171875, 1478.4337158203125, 3174.0146484375, 0.030000001192092896, 0.9180000424385071, 0.20200000703334808, 192.0, 0.0, 0.0, 0.0, 0.0, 0.0, 0.0, 0.0, 0.0, 0.0, 1.6154787597853622E9, 2021-03-11 17:05:59.785
149.0, 166494.03125, 187500.0, -37584.27734375, -7834.55419921875, -187500.015625, -9053.6630859375, 1744.732421875, 3439.486328125, 0.030000001192092896, 0.9180000424385071, 0.20200000703334808, 192.0, 0.0, 0.0, 0.0, 0.0, 0.0, 0.0, 0.0, 0.0, 0.0, 1.615478759785365E9, 2021-03-11 17:05:59.785
150.0, 166496.625, 187500.0, -37347.796875, -7696.86767578125, -187500.015625, -9087.5703125, 1692.3846435546875, 3412.261962890625, 0.030000001192092896, 0.9180000424385071, 0.20200000703334808, 192.0, 0.0, 0.0, 0.0, 0.0, 0.0, 0.0, 0.0, 0.0, 0.0, 1.6154787597853694E9, 2021-03-11 17:05:59.785
151.0, 166258.546875, 187500.0, -37318.1796875, -7681.802734375, -187500.015625, -9378.76953125, 1420.743896484375, 3146.74560546875, 0.02200000174343586, 0.9240000247955322, 0.2160000056028366, 192.0, 0.0, 176.0, 28.0, 224.0, 6.0, 192.0, 0.0, 0.0, 0.0, 1.6154787597853725E9, 2021-03-11 17:05:59.785
152.0, 166056.109375, 187500.0, -37556.29296875, -7827.7373046875, -187500.015625, -9564.9814453125, 1247.2496337890625, 2987.82470703125, 0.02200000174343586, 0.9240000247955322, 0.2160000056028366, 192.0, 0.0, 0.0, 0.0, 0.0, 0.0, 0.0, 0.0, 0.0, 0.0, 1.6154787597853754E9, 2021-03-11 17:05:59.785
153.0, 166222.296875, 187500.0, -37733.6328125, -7914.55126953125, -187500.015625, -9336.4130859375, 1489.900146484375, 3199.048583984375, 0.02200000174343586, 0.9240000247955322, 0.2160000056028366, 192.0, 0.0, 0.0, 0.0, 0.0, 0.0, 0.0, 0.0, 0.0, 0.0, 1.6154787597853782E9, 2021-03-11 17:05:59.785
154.0, 166485.59375, 187500.0, -37575.515625, -7825.36767578125, -187500.015625, -9059.8544921875, 1792.7886962890625, 3478.6689453125, 0.02200000174343586, 0.9240000247955322, 0.2160000056028366, 192.0, 0.0, 0.0, 0.0, 0.0, 0.0, 0.0, 0.0, 0.0, 0.0, 1.6154787597853816E9, 2021-03-11 17:05:59.785
155.0, 166498.15625, 187500.0, -37342.96875, -7684.23876953125, -187500.015625, -9142.3330078125, 1750.7896728515625, 3451.064453125, 0.02200000174343586, 0.9240000247955322, 0.2160000056028366, 192.0, 0.0, 0.0, 0.0, 0.0, 0.0, 0.0, 0.0, 0.0, 0.0, 1.6154787597853851E9, 2021-03-11 17:05:59.785
156.0, 166243.5, 187500.0, -37347.7734375, -7694.85595703125, -187500.015625, -9473.09375, 1430.7574462890625, 3139.12353515625, 0.02200000174343586, 0.9240000247955322, 0.2160000056028366, 192.0, 0.0, 0.0, 0.0, 0.0, 0.0, 0.0, 0.0, 0.0, 0.0, 1.615478759785388E9, 2021-03-11 17:05:59.785
157.0, 166037.015625, 187500.0, -37606.609375, -7862.3154296875, -187500.015625, -9705.9765625, 1204.3343505859375, 2899.378662109375, 0.02200000174343586, 0.9240000247955322, 0.2160000056028366, 192.0, 0.0, 0.0, 0.0, 0.0, 0.0, 0.0, 0.0, 0.0, 0.0, 1.6154787597853909E9, 2021-03-11 17:05:59.785
158.0, 166216.15625, 187500.0, -37768.96875, -7944.56982421875, -187500.015625, -9476.15625, 1441.1063232421875, 3119.878662109375, 0.02200000174343586, 0.9240000247955322, 0.2160000056028366, 192.0, 0.0, 0.0, 0.0, 0.0, 0.0, 0.0, 0.0, 0.0, 0.0, 1.615478759785394E9, 2021-03-11 17:05:59.785
159.0, 166499.84375, 187500.0, -37588.94921875, -7842.57861328125, -187500.015625, -9161.197265625, 1754.23193359375, 3458.060546875, 0.02200000174343586, 0.9240000247955322, 0.2160000056028366, 192.0, 0.0, 0.0, 0.0, 0.0, 0.0, 0.0, 0.0, 0.0, 0.0, 1.6154787597853968E9, 2021-03-11 17:05:59.785
160.0, 166509.1875, 187500.0, -37336.91015625, -7688.70947265625, -187500.015625, -9186.4326171875, 1706.1533203125, 3445.78955078125, 0.02200000174343586, 0.9240000247955322, 0.2160000056028366, 192.0, 0.0, 0.0, 0.0, 0.0, 0.0, 0.0, 0.0, 0.0, 0.0, 1.6154787597854002E9, 2021-03-11 17:05:59.785
161.0, 166270.953125, 187500.0, -37312.48046875, -7673.0185546875, -187500.015625, -9476.423828125, 1415.446533203125, 3175.0205078125, 0.026000000536441803, 0.9080000519752502, 0.22200001776218414, 192.0, 0.0, 208.0, 28.0, 96.0, 6.0, 240.0, 0.0, 0.0, 0.0, 1.615478759785404E9, 2021-03-11 17:05:59.785
162.0, 166063.984375, 187500.0, -37565.03515625, -7836.9013671875, -187500.015625, -9685.63671875, 1209.29638671875, 2964.9365234375, 0.026000000536441803, 0.9080000519752502, 0.22200001776218414, 192.0, 0.0, 0.0, 0.0, 0.0, 0.0, 0.0, 0.0, 0.0, 0.0, 1.6154787597854085E9, 2021-03-11 17:05:59.785
163.0, 166263.53125, 187500.0, -37706.02734375, -7921.36865234375, -187500.015625, -9436.146484375, 1457.2666015625, 3182.68701171875, 0.026000000536441803, 0.9080000519752502, 0.22200001776218414, 192.0, 0.0, 0.0, 0.0, 0.0, 0.0, 0.0, 0.0, 0.0, 0.0, 1.615478759785412E9, 2021-03-11 17:05:59.785
164.0, 166506.96875, 187500.0, -37513.40234375, -7845.439453125, -187500.015625, -9162.7392578125, 1739.0997314453125, 3444.0908203125, 0.026000000536441803, 0.9080000519752502, 0.22200001776218414, 192.0, 0.0, 0.0, 0.0, 0.0, 0.0, 0.0, 0.0, 0.0, 0.0, 1.6154787597854147E9, 2021-03-11 17:05:59.785
165.0, 166485.46875, 187500.0, -37254.45703125, -7711.150390625, -187500.015625, -9225.927734375, 1672.0445556640625, 3407.478515625, 0.026000000536441803, 0.9080000519752502, 0.22200001776218414, 192.0, 0.0, 0.0, 0.0, 0.0, 0.0, 0.0, 0.0, 0.0, 0.0, 1.6154787597854178E9, 2021-03-11 17:05:59.785
166.0, 166232.40625, 187500.0, -37235.1875, -7713.02783203125, -187500.015625, -9525.8662109375, 1363.2552490234375, 3129.646484375, 0.026000000536441803, 0.9080000519752502, 0.22200001776218414, 192.0, 0.0, 0.0, 0.0, 0.0, 0.0, 0.0, 0.0, 0.0, 0.0, 1.615478759785421E9, 2021-03-11 17:05:59.785
167.0, 166042.8125, 187500.0, -37475.9375, -7865.712890625, -187500.015625, -9710.0, 1197.5841064453125, 2956.062744140625, 0.026000000536441803, 0.9080000519752502, 0.22200001776218414, 192.0, 0.0, 0.0, 0.0, 0.0, 0.0, 0.0, 0.0, 0.0, 0.0, 1.6154787597854235E9, 2021-03-11 17:05:59.785
168.0, 166256.8125, 187500.0, -37588.34765625, -7925.14599609375, -187500.015625, -9440.794921875, 1473.516357421875, 3207.11767578125, 0.026000000536441803, 0.9080000519752502, 0.22200001776218414, 192.0, 0.0, 0.0, 0.0, 0.0, 0.0, 0.0, 0.0, 0.0, 0.0, 1.6154787597854264E9, 2021-03-11 17:05:59.785
169.0, 166528.21875, 187500.0, -37394.625, -7820.6513671875, -187500.015625, -9154.0224609375, 1765.5418701171875, 3484.0556640625, 0.026000000536441803, 0.9080000519752502, 0.22200001776218414, 192.0, 0.0, 0.0, 0.0, 0.0, 0.0, 0.0, 0.0, 0.0, 0.0, 1.6154787597854292E9, 2021-03-11 17:05:59.785
170.0, 166511.28125, 187500.0, -37173.7890625, -7680.1259765625, -187500.015625, -9207.95703125, 1706.488525390625, 3442.1015625, 0.026000000536441803, 0.9080000519752502, 0.22200001776218414, 192.0, 0.0, 0.0, 0.0, 0.0, 0.0, 0.0, 0.0, 0.0, 0.0, 1.6154787597854323E9, 2021-03-11 17:05:59.785
171.0, 166240.4375, 187500.0, -37205.23828125, -7693.6044921875, -187500.015625, -9515.181640625, 1383.3270263671875, 3143.079833984375, 0.04000000283122063, 0.9260000586509705, 0.2120000123977661, 192.0, 1.0, 64.0, 28.0, 240.0, 6.0, 160.0, 0.0, 0.0, 0.0, 1.6154787597854393E9, 2021-03-11 17:05:59.785
172.0, 166043.03125, 187500.0, -37491.40625, -7864.39404296875, -187500.015625, -9697.9072265625, 1194.7677001953125, 2953.3134765625, 0.04000000283122063, 0.9260000586509705, 0.2120000123977661, 192.0, 0.0, 0.0, 0.0, 0.0, 0.0, 0.0, 0.0, 0.0, 0.0, 1.6154787597854464E9, 2021-03-11 17:05:59.785
173.0, 166270.78125, 187500.0, -37606.00390625, -7917.412109375, -187500.015625, -9412.69921875, 1496.3375244140625, 3221.065185546875, 0.04000000283122063, 0.9260000586509705, 0.2120000123977661, 192.0, 0.0, 0.0, 0.0, 0.0, 0.0, 0.0, 0.0, 0.0, 0.0, 1.6154787597854495E9, 2021-03-11 17:05:59.785
174.0, 166544.875, 187500.0, -37413.7109375, -7811.2861328125, -187500.015625, -9137.4150390625, 1800.5, 3497.712646484375, 0.04000000283122063, 0.9260000586509705, 0.2120000123977661, 192.0, 0.0, 0.0, 0.0, 0.0, 0.0, 0.0, 0.0, 0.0, 0.0, 1.6154787597854548E9, 2021-03-11 17:05:59.785
175.0, 166518.34375, 187500.0, -37200.51953125, -7681.04248046875, -187500.015625, -9210.6396484375, 1724.2581787109375, 3442.50390625, 0.04000000283122063, 0.9260000586509705, 0.2120000123977661, 192.0, 0.0, 0.0, 0.0, 0.0, 0.0, 0.0, 0.0, 0.0, 0.0, 1.615478759785458E9, 2021-03-11 17:05:59.785
176.0, 166231.0625, 187500.0, -37216.1015625, -7694.1181640625, -187500.015625, -9518.490234375, 1413.546630859375, 3146.4326171875, 0.04000000283122063, 0.9260000586509705, 0.2120000123977661, 192.0, 0.0, 0.0, 0.0, 0.0, 0.0, 0.0, 0.0, 0.0, 0.0, 1.6154787597854617E9, 2021-03-11 17:05:59.785
177.0, 166049.375, 187500.0, -37465.0546875, -7852.7265625, -187500.015625, -9693.0126953125, 1230.5081787109375, 2975.978271484375, 0.04000000283122063, 0.9260000586509705, 0.2120000123977661, 192.0, 0.0, 0.0, 0.0, 0.0, 0.0, 0.0, 0.0, 0.0, 0.0, 1.6154787597854657E9, 2021-03-11 17:05:59.785
178.0, 166250.015625, 187500.0, -37595.20703125, -7928.74462890625, -187500.015625, -9434.6484375, 1492.8282470703125, 3222.47314453125, 0.04000000283122063, 0.9260000586509705, 0.2120000123977661, 192.0, 0.0, 0.0, 0.0, 0.0, 0.0, 0.0, 0.0, 0.0, 0.0, 1.6154787597854693E9, 2021-03-11 17:05:59.785
179.0, 166526.75, 187500.0, -37387.47265625, -7815.689453125, -187500.015625, -9147.7197265625, 1792.967529296875, 3495.611572265625, 0.04000000283122063, 0.9260000586509705, 0.2120000123977661, 192.0, 0.0, 0.0, 0.0, 0.0, 0.0, 0.0, 0.0, 0.0, 0.0, 1.6154787597854729E9, 2021-03-11 17:05:59.785
180.0, 166492.625, 187500.0, -37182.03515625, -7687.748046875, -187500.015625, -9231.1806640625, 1707.24853515625, 3426.61181640625, 0.04000000283122063, 0.9260000586509705, 0.2120000123977661, 192.0, 0.0, 0.0, 0.0, 0.0, 0.0, 0.0, 0.0, 0.0, 0.0, 1.6154787597854755E9, 2021-03-11 17:05:59.785
181.0, 166211.765625, 187500.0, -37225.98046875, -7713.89990234375, -187500.015625, -9532.4599609375, 1374.9451904296875, 3134.74267578125, 0.03800000250339508, 0.9500000476837158, 0.21000000834465027, 192.0, 1.0, 48.0, 29.0, 176.0, 6.0, 144.0, 0.0, 0.0, 0.0, 1.6154787597854784E9, 2021-03-11 17:05:59.785
182.0, 166056.421875, 187500.0, -37474.77734375, -7869.80322265625, -187500.015625, -9688.5419921875, 1220.7628173828125, 2974.3017578125, 0.03800000250339508, 0.9500000476837158, 0.21000000834465027, 192.0, 0.0, 0.0, 0.0, 0.0, 0.0, 0.0, 0.0, 0.0, 0.0, 1.6154787597854822E9, 2021-03-11 17:05:59.785
183.0, 166280.453125, 187500.0, -37572.54296875, -7929.884765625, -187500.015625, -9414.8671875, 1513.74951171875, 3235.437255859375, 0.03800000250339508, 0.9500000476837158, 0.21000000834465027, 192.0, 0.0, 0.0, 0.0, 0.0, 0.0, 0.0, 0.0, 0.0, 0.0, 1.6154787597854855E9, 2021-03-11 17:05:59.785
184.0, 166536.046875, 187500.0, -37397.9765625, -7835.82861328125, -187500.015625, -9165.6005859375, 1776.3824462890625, 3484.815673828125, 0.03800000250339508, 0.9500000476837158, 0.21000000834465027, 192.0, 0.0, 0.0, 0.0, 0.0, 0.0, 0.0, 0.0, 0.0, 0.0, 1.6154787597854884E9, 2021-03-11 17:05:59.785
185.0, 166505.875, 187500.0, -37169.54296875, -7688.68701171875, -187500.015625, -9227.224609375, 1712.83642578125, 3437.228759765625, 0.03800000250339508, 0.9500000476837158, 0.21000000834465027, 192.0, 0.0, 0.0, 0.0, 0.0, 0.0, 0.0, 0.0, 0.0, 0.0, 1.6154787597854922E9, 2021-03-11 17:05:59.785
186.0, 166217.890625, 187500.0, -37193.2109375, -7700.64501953125, -187500.015625, -9525.3515625, 1401.9683837890625, 3148.868896484375, 0.03800000250339508, 0.9500000476837158, 0.21000000834465027, 192.0, 0.0, 0.0, 0.0, 0.0, 0.0, 0.0, 0.0, 0.0, 0.0, 1.6154787597854953E9, 2021-03-11 17:05:59.785
187.0, 166066.890625, 187500.0, -37465.79296875, -7850.58056640625, -187500.015625, -9665.05078125, 1243.941650390625, 3000.274658203125, 0.03800000250339508, 0.9500000476837158, 0.21000000834465027, 192.0, 0.0, 0.0, 0.0, 0.0, 0.0, 0.0, 0.0, 0.0, 0.0, 1.6154787597854984E9, 2021-03-11 17:05:59.785
188.0, 166285.21875, 187500.0, -37578.22265625, -7920.13916015625, -187500.015625, -9396.2705078125, 1526.6016845703125, 3254.302001953125, 0.03800000250339508, 0.9500000476837158, 0.21000000834465027, 192.0, 0.0, 0.0, 0.0, 0.0, 0.0, 0.0, 0.0, 0.0, 0.0, 1.6154787597855017E9, 2021-03-11 17:05:59.785
189.0, 166533.4375, 187500.0, -37387.6953125, -7819.98095703125, -187500.015625, -9149.7978515625, 1777.5894775390625, 3491.320068359375, 0.03800000250339508, 0.9500000476837158, 0.21000000834465027, 192.0, 0.0, 0.0, 0.0, 0.0, 0.0, 0.0, 0.0, 0.0, 0.0, 1.6154787597855043E9, 2021-03-11 17:05:59.785
190.0, 166480.328125, 187500.0, -37195.203125, -7692.10693359375, -187500.015625, -9209.41015625, 1688.0260009765625, 3414.78759765625, 0.03800000250339508, 0.9500000476837158, 0.21000000834465027, 192.0, 0.0, 0.0, 0.0, 0.0, 0.0, 0.0, 0.0, 0.0, 0.0, 1.615478759785508E9, 2021-03-11 17:05:59.785
191.0, 166217.046875, 187500.0, -37238.49609375, -7708.82568359375, -187500.015625, -9452.150390625, 1388.557373046875, 3133.021484375, 0.030000001192092896, 0.9620000720024109, 0.1940000057220459, 192.0, 0.0, 240.0, 30.0, 16.0, 6.0, 16.0, 0.0, 0.0, 0.0, 1.6154787597855113E9, 2021-03-11 17:05:59.785
192.0, 166051.1875, 187500.0, -37524.21875, -7882.72216796875, -187500.015625, -9594.7763671875, 1214.19140625, 2967.3056640625, 0.030000001192092896, 0.9620000720024109, 0.1940000057220459, 192.0, 0.0, 0.0, 0.0, 0.0, 0.0, 0.0, 0.0, 0.0, 0.0, 1.6154787597855139E9, 2021-03-11 17:05:59.785
193.0, 166291.09375, 187500.0, -37640.87109375, -7933.86328125, -187500.015625, -9304.1142578125, 1515.4705810546875, 3240.757080078125, 0.030000001192092896, 0.9620000720024109, 0.1940000057220459, 192.0, 0.0, 0.0, 0.0, 0.0, 0.0, 0.0, 0.0, 0.0, 0.0, 1.6154787597855167E9, 2021-03-11 17:05:59.785
194.0, 166577.390625, 187500.0, -37442.90234375, -7799.01513671875, -187500.015625, -9024.1142578125, 1803.4951171875, 3513.202392578125, 0.030000001192092896, 0.9620000720024109, 0.1940000057220459, 192.0, 0.0, 0.0, 0.0, 0.0, 0.0, 0.0, 0.0, 0.0, 0.0, 1.615478759785528E9, 2021-03-11 17:05:59.785
195.0, 166506.765625, 187500.0, -37232.88671875, -7661.373046875, -187500.015625, -9120.0029296875, 1694.75390625, 3426.36572265625, 0.030000001192092896, 0.9620000720024109, 0.1940000057220459, 192.0, 0.0, 0.0, 0.0, 0.0, 0.0, 0.0, 0.0, 0.0, 0.0, 1.6154787597855325E9, 2021-03-11 17:05:59.785
196.0, 166221.0625, 187500.0, -37305.93359375, -7692.50927734375, -187500.015625, -9432.7490234375, 1374.654541015625, 3121.108154296875, 0.030000001192092896, 0.9620000720024109, 0.1940000057220459, 192.0, 0.0, 0.0, 0.0, 0.0, 0.0, 0.0, 0.0, 0.0, 0.0, 1.615478759785536E9, 2021-03-11 17:05:59.785
197.0, 166070.796875, 187500.0, -37588.5703125, -7857.62158203125, -187500.015625, -9552.576171875, 1286.7227783203125, 3010.310546875, 0.030000001192092896, 0.9620000720024109, 0.1940000057220459, 192.0, 0.0, 0.0, 0.0, 0.0, 0.0, 0.0, 0.0, 0.0, 0.0, 1.615478759785539E9, 2021-03-11 17:05:59.785
198.0, 166291.453125, 187500.0, -37696.75390625, -7920.072265625, -187500.015625, -9273.4033203125, 1570.4334716796875, 3279.313720703125, 0.030000001192092896, 0.9620000720024109, 0.1940000057220459, 192.0, 0.0, 0.0, 0.0, 0.0, 0.0, 0.0, 0.0, 0.0, 0.0, 1.6154787597855425E9, 2021-03-11 17:05:59.785
199.0, 166563.15625, 187500.0, -37457.72265625, -7783.525390625, -187500.015625, -9004.0419921875, 1833.044189453125, 3542.6171875, 0.030000001192092896, 0.9620000720024109, 0.1940000057220459, 192.0, 0.0, 0.0, 0.0, 0.0, 0.0, 0.0, 0.0, 0.0, 0.0, 1.615478759785545E9, 2021-03-11 17:05:59.785
200.0, 166481.75, 187500.0, -37266.75, -7659.80859375, -187500.015625, -9118.662109375, 1720.8160400390625, 3447.935302734375, 0.030000001192092896, 0.9620000720024109, 0.1940000057220459, 192.0, 0.0, 0.0, 0.0, 0.0, 0.0, 0.0, 0.0, 0.0, 0.0, 1.615478759785548E9, 2021-03-11 17:05:59.785
201.0, 166207.953125, 187500.0, -37315.1640625, -7697.62744140625, -187500.015625, -9431.6982421875, 1398.861572265625, 3152.556884765625, 0.030000001192092896, 0.9520000219345093, 0.19600000977516174, 192.0, 0.0, 240.0, 29.0, 192.0, 6.0, 32.0, 0.0, 0.0, 0.0, 1.615478759785551E9, 2021-03-11 17:05:59.785
202.0, 166060.359375, 187500.0, -37606.046875, -7874.94384765625, -187500.015625, -9557.9189453125, 1270.47314453125, 3006.01904296875, 0.030000001192092896, 0.9520000219345093, 0.19600000977516174, 192.0, 0.0, 0.0, 0.0, 0.0, 0.0, 0.0, 0.0, 0.0, 0.0, 1.615478759785554E9, 2021-03-11 17:05:59.785
203.0, 166308.734375, 187500.0, -37708.41796875, -7925.70458984375, -187500.015625, -9261.19921875, 1576.9378662109375, 3274.619873046875, 0.030000001192092896, 0.9520000219345093, 0.19600000977516174, 192.0, 0.0, 0.0, 0.0, 0.0, 0.0, 0.0, 0.0, 0.0, 0.0, 1.6154787597855573E9, 2021-03-11 17:05:59.785
204.0, 166540.453125, 187500.0, -37534.12109375, -7813.4990234375, -187500.015625, -9028.830078125, 1851.730224609375, 3523.171142578125, 0.030000001192092896, 0.9520000219345093, 0.19600000977516174, 192.0, 0.0, 0.0, 0.0, 0.0, 0.0, 0.0, 0.0, 0.0, 0.0, 1.61547875978556E9, 2021-03-11 17:05:59.785
205.0, 166438.8125, 187500.0, -37353.31640625, -7695.50439453125, -187500.015625, -9157.2412109375, 1712.5235595703125, 3422.07421875, 0.030000001192092896, 0.9520000219345093, 0.19600000977516174, 192.0, 0.0, 0.0, 0.0, 0.0, 0.0, 0.0, 0.0, 0.0, 0.0, 1.6154787597855644E9, 2021-03-11 17:05:59.785
206.0, 166188.046875, 187500.0, -37338.41015625, -7712.67041015625, -187500.015625, -9451.5244140625, 1372.9334716796875, 3131.0546875, 0.030000001192092896, 0.9520000219345093, 0.19600000977516174, 192.0, 0.0, 0.0, 0.0, 0.0, 0.0, 0.0, 0.0, 0.0, 0.0, 1.6154787597855701E9, 2021-03-11 17:05:59.785
207.0, 166049.296875, 187500.0, -37601.4453125, -7879.12353515625, -187500.015625, -9561.517578125, 1246.5791015625, 3010.824462890625, 0.030000001192092896, 0.9520000219345093, 0.19600000977516174, 192.0, 0.0, 0.0, 0.0, 0.0, 0.0, 0.0, 0.0, 0.0, 0.0, 1.6154787597855744E9, 2021-03-11 17:05:59.785
208.0, 166302.34375, 187500.0, -37657.90625, -7912.875, -187500.015625, -9244.6142578125, 1566.4996337890625, 3309.66748046875, 0.030000001192092896, 0.9520000219345093, 0.19600000977516174, 192.0, 0.0, 0.0, 0.0, 0.0, 0.0, 0.0, 0.0, 0.0, 0.0, 1.6154787597855778E9, 2021-03-11 17:05:59.785
209.0, 166553.484375, 187500.0, -37415.61328125, -7780.17236328125, -187500.015625, -9002.8798828125, 1814.89453125, 3539.53271484375, 0.030000001192092896, 0.9520000219345093, 0.19600000977516174, 192.0, 0.0, 0.0, 0.0, 0.0, 0.0, 0.0, 0.0, 0.0, 0.0, 1.615478759785608E9, 2021-03-11 17:05:59.785
210.0, 166463.71875, 187500.0, -37227.92578125, -7666.29052734375, -187500.015625, -9107.75390625, 1687.86962890625, 3417.1123046875, 0.02200000174343586, 0.9820000529289246, 0.19200000166893005, 192.0, 0.0, 176.0, 30.0, 176.0, 6.0, 0.0, 0.0, 0.0, 0.0, 1.6154787597856154E9, 2021-03-11 17:05:59.785
211.0, 166179.484375, 187500.0, -37294.8671875, -7719.30859375, -187500.015625, -9392.560546875, 1318.5740966796875, 3086.2392578125, 0.02200000174343586, 0.9820000529289246, 0.19200000166893005, 192.0, 0.0, 0.0, 0.0, 0.0, 0.0, 0.0, 0.0, 0.0, 0.0, 1.6154787597856216E9, 2021-03-11 17:05:59.785
212.0, 166066.28125, 187500.0, -37573.6171875, -7878.4306640625, -187500.015625, -9445.3779296875, 1239.3818359375, 3017.261962890625, 0.02200000174343586, 0.9820000529289246, 0.19200000166893005, 192.0, 0.0, 0.0, 0.0, 0.0, 0.0, 0.0, 0.0, 0.0, 0.0, 1.6154787597856245E9, 2021-03-11 17:05:59.785
213.0, 166308.90625, 187500.0, -37644.40625, -7919.78173828125, -187500.015625, -9123.6240234375, 1581.4305419921875, 3329.359375, 0.02200000174343586, 0.9820000529289246, 0.19200000166893005, 192.0, 0.0, 0.0, 0.0, 0.0, 0.0, 0.0, 0.0, 0.0, 0.0, 1.6154787597856278E9, 2021-03-11 17:05:59.785
214.0, 166545.53125, 187500.0, -37422.0703125, -7791.81787109375, -187500.015625, -8886.8525390625, 1814.3804931640625, 3552.451904296875, 0.02200000174343586, 0.9820000529289246, 0.19200000166893005, 192.0, 0.0, 0.0, 0.0, 0.0, 0.0, 0.0, 0.0, 0.0, 0.0, 1.6154787597856348E9, 2021-03-11 17:05:59.785
215.0, 166461.640625, 187500.0, -37239.3671875, -7673.3310546875, -187500.015625, -9019.5771484375, 1684.9415283203125, 3436.17822265625, 0.02200000174343586, 0.9820000529289246, 0.19200000166893005, 192.0, 0.0, 0.0, 0.0, 0.0, 0.0, 0.0, 0.0, 0.0, 0.0, 1.6154787597856405E9, 2021-03-11 17:05:59.785
216.0, 166190.59375, 187500.0, -37332.26171875, -7733.21142578125, -187500.015625, -9346.314453125, 1387.1044921875, 3125.377197265625, 0.02200000174343586, 0.9820000529289246, 0.19200000166893005, 192.0, 0.0, 0.0, 0.0, 0.0, 0.0, 0.0, 0.0, 0.0, 0.0, 1.6154787597856436E9, 2021-03-11 17:05:59.785
217.0, 166055.640625, 187500.0, -37626.61328125, -7896.267578125, -187500.015625, -9426.2666015625, 1332.3204345703125, 3036.484375, 0.02200000174343586, 0.9820000529289246, 0.19200000166893005, 192.0, 0.0, 0.0, 0.0, 0.0, 0.0, 0.0, 0.0, 0.0, 0.0, 1.6154787597856495E9, 2021-03-11 17:05:59.785
218.0, 166306.671875, 187500.0, -37679.4296875, -7920.36279296875, -187500.015625, -9113.119140625, 1618.154541015625, 3324.509033203125, 0.02200000174343586, 0.9820000529289246, 0.19200000166893005, 192.0, 0.0, 0.0, 0.0, 0.0, 0.0, 0.0, 0.0, 0.0, 0.0, 1.6154787597856607E9, 2021-03-11 17:05:59.785
219.0, 166550.421875, 187500.0, -37442.0078125, -7781.916015625, -187500.015625, -8893.8701171875, 1827.880859375, 3553.63671875, 0.02200000174343586, 0.9820000529289246, 0.19200000166893005, 192.0, 0.0, 0.0, 0.0, 0.0, 0.0, 0.0, 0.0, 0.0, 0.0, 1.6154787597856643E9, 2021-03-11 17:05:59.785
220.0, 166451.78125, 187500.0, -37262.5703125, -7665.2177734375, -187500.015625, -9031.78125, 1684.7626953125, 3430.38916015625, 0.012000000104308128, 0.9440000653266907, 0.1940000057220459, 192.0, 0.0, 96.0, 29.0, 128.0, 6.0, 16.0, 0.0, 0.0, 0.0, 1.615478759785668E9, 2021-03-11 17:05:59.785
221.0, 166165.078125, 187500.0, -37357.9453125, -7736.25146484375, -187500.015625, -9366.0732421875, 1340.970458984375, 3100.34326171875, 0.012000000104308128, 0.9440000653266907, 0.1940000057220459, 192.0, 0.0, 0.0, 0.0, 0.0, 0.0, 0.0, 0.0, 0.0, 0.0, 1.615478759785672E9, 2021-03-11 17:05:59.785
222.0, 166053.734375, 187500.0, -37653.76953125, -7915.78076171875, -187500.015625, -9467.662109375, 1256.68212890625, 3003.2919921875, 0.012000000104308128, 0.9440000653266907, 0.1940000057220459, 192.0, 0.0, 0.0, 0.0, 0.0, 0.0, 0.0, 0.0, 0.0, 0.0, 1.6154787597856777E9, 2021-03-11 17:05:59.785
223.0, 166314.203125, 187500.0, -37700.12890625, -7944.8828125, -187500.015625, -9143.517578125, 1599.244873046875, 3312.684814453125, 0.012000000104308128, 0.9440000653266907, 0.1940000057220459, 192.0, 0.0, 0.0, 0.0, 0.0, 0.0, 0.0, 0.0, 0.0, 0.0, 1.6154787597856843E9, 2021-03-11 17:05:59.785
224.0, 166536.53125, 187500.0, -37450.0546875, -7800.44580078125, -187500.015625, -8919.708984375, 1832.9100341796875, 3528.781494140625, 0.012000000104308128, 0.9440000653266907, 0.1940000057220459, 192.0, 0.0, 0.0, 0.0, 0.0, 0.0, 0.0, 0.0, 0.0, 0.0, 1.6154787597856872E9, 2021-03-11 17:05:59.785
225.0, 166426.40625, 187500.0, -37273.1640625, -7693.64892578125, -187500.015625, -9075.6123046875, 1674.0338134765625, 3390.513671875, 0.012000000104308128, 0.9440000653266907, 0.1940000057220459, 192.0, 0.0, 0.0, 0.0, 0.0, 0.0, 0.0, 0.0, 0.0, 0.0, 1.6154787597856927E9, 2021-03-11 17:05:59.785
226.0, 166163.46875, 187500.0, -37347.4375, -7746.64501953125, -187500.015625, -9391.7783203125, 1342.088134765625, 3086.77587890625, 0.012000000104308128, 0.9440000653266907, 0.1940000057220459, 192.0, 0.0, 0.0, 0.0, 0.0, 0.0, 0.0, 0.0, 0.0, 0.0, 1.6154787597856991E9, 2021-03-11 17:05:59.785
227.0, 166095.5, 187500.0, -37622.87890625, -7906.0126953125, -187500.015625, -9463.7734375, 1287.7286376953125, 3013.17138671875, 0.012000000104308128, 0.9440000653266907, 0.1940000057220459, 192.0, 0.0, 0.0, 0.0, 0.0, 0.0, 0.0, 0.0, 0.0, 0.0, 1.6154787597857068E9, 2021-03-11 17:05:59.785
228.0, 166339.953125, 187500.0, -37642.1484375, -7916.6748046875, -187500.015625, -9143.5390625, 1639.142822265625, 3335.1484375, 0.012000000104308128, 0.9440000653266907, 0.1940000057220459, 192.0, 0.0, 0.0, 0.0, 0.0, 0.0, 0.0, 0.0, 0.0, 0.0, 1.6154787597857146E9, 2021-03-11 17:05:59.785
229.0, 166548.9375, 187500.0, -37396.94921875, -7778.09375, -187500.015625, -8943.357421875, 1840.6884765625, 3538.34814453125, 0.012000000104308128, 0.9440000653266907, 0.1940000057220459, 192.0, 0.0, 0.0, 0.0, 0.0, 0.0, 0.0, 0.0, 0.0, 0.0, 1.6154787597857184E9, 2021-03-11 17:05:59.785
230.0, 166438.953125, 187500.0, -37219.5859375, -7667.87744140625, -187500.015625, -9098.880859375, 1655.1466064453125, 3392.033447265625, 0.014000000432133675, 0.9340000152587891, 0.19600000977516174, 192.0, 0.0, 112.0, 29.0, 48.0, 6.0, 32.0, 0.0, 0.0, 0.0, 1.6154787597857296E9, 2021-03-11 17:05:59.785
231.0, 166141.859375, 187500.0, -37323.03125, -7745.23681640625, -187500.015625, -9425.2158203125, 1316.6070556640625, 3078.8857421875, 0.014000000432133675, 0.9340000152587891, 0.19600000977516174, 192.0, 0.0, 0.0, 0.0, 0.0, 0.0, 0.0, 0.0, 0.0, 0.0, 1.6154787597857404E9, 2021-03-11 17:05:59.785
232.0, 166070.703125, 187500.0, -37590.58203125, -7899.8662109375, -187500.015625, -9449.84765625, 1285.44873046875, 3045.20166015625, 0.014000000432133675, 0.9340000152587891, 0.19600000977516174, 192.0, 0.0, 0.0, 0.0, 0.0, 0.0, 0.0, 0.0, 0.0, 0.0, 1.6154787597857468E9, 2021-03-11 17:05:59.785
233.0, 166347.734375, 187500.0, -37601.82421875, -7915.84765625, -187500.015625, -9112.9404296875, 1632.146728515625, 3357.075439453125, 0.014000000432133675, 0.9340000152587891, 0.19600000977516174, 192.0, 0.0, 0.0, 0.0, 0.0, 0.0, 0.0, 0.0, 0.0, 0.0, 1.615478759785752E9, 2021-03-11 17:05:59.785
234.0, 166549.65625, 187500.0, -37353.765625, -7776.03759765625, -187500.015625, -8916.0439453125, 1834.1617431640625, 3546.484130859375, 0.014000000432133675, 0.9340000152587891, 0.19600000977516174, 192.0, 0.0, 0.0, 0.0, 0.0, 0.0, 0.0, 0.0, 0.0, 0.0, 1.6154787597857592E9, 2021-03-11 17:05:59.785
235.0, 166425.65625, 187500.0, -37187.9140625, -7672.83935546875, -187500.015625, -9083.79296875, 1637.8016357421875, 3390.8935546875, 0.014000000432133675, 0.9340000152587891, 0.19600000977516174, 192.0, 0.0, 0.0, 0.0, 0.0, 0.0, 0.0, 0.0, 0.0, 0.0, 1.6154787602652493E9, 2021-03-11 17:06:00.265
236.0, 166130.625, 187500.0, -37308.0546875, -7766.06884765625, -187500.015625, -9418.599609375, 1301.8326416015625, 3059.75244140625, 0.014000000432133675, 0.9340000152587891, 0.19600000977516174, 192.0, 0.0, 0.0, 0.0, 0.0, 0.0, 0.0, 0.0, 0.0, 0.0, 1.6154787602652795E9, 2021-03-11 17:06:00.265
237.0, 166052.84375, 187500.0, -37590.60546875, -7934.1982421875, -187500.015625, -9458.654296875, 1272.618896484375, 3009.170654296875, 0.014000000432133675, 0.9340000152587891, 0.19600000977516174, 192.0, 0.0, 0.0, 0.0, 0.0, 0.0, 0.0, 0.0, 0.0, 0.0, 1.615478760265345E9, 2021-03-11 17:06:00.265
238.0, 166338.859375, 187500.0, -37591.453125, -7941.26171875, -187500.015625, -9127.87109375, 1628.3021240234375, 3328.197021484375, 0.014000000432133675, 0.9340000152587891, 0.19600000977516174, 192.0, 0.0, 0.0, 0.0, 0.0, 0.0, 0.0, 0.0, 0.0, 0.0, 1.615478760265396E9, 2021-03-11 17:06:00.265
239.0, 166543.203125, 187500.0, -37338.296875, -7795.3046875, -187500.015625, -8937.3671875, 1837.38037109375, 3519.14794921875, 0.014000000432133675, 0.9340000152587891, 0.19600000977516174, 192.0, 0.0, 0.0, 0.0, 0.0, 0.0, 0.0, 0.0, 0.0, 0.0, 1.6154787602654395E9, 2021-03-11 17:06:00.265
240.0, 166442.546875, 187500.0, -37160.82421875, -7672.794921875, -187500.015625, -9078.0712890625, 1628.7044677734375, 3379.42724609375, 0.024000000208616257, 0.9460000395774841, 0.1860000044107437, 192.0, 0.0, 192.0, 29.0, 144.0, 5.0, 208.0, 0.0, 0.0, 0.0, 1.615478760265444E9, 2021-03-11 17:06:00.265
241.0, 166129.84375, 187500.0, -37282.328125, -7760.123046875, -187500.015625, -9398.013671875, 1261.532470703125, 3057.114990234375, 0.024000000208616257, 0.9460000395774841, 0.1860000044107437, 192.0, 0.0, 0.0, 0.0, 0.0, 0.0, 0.0, 0.0, 0.0, 0.0, 1.6154787602654724E9, 2021-03-11 17:06:00.265
242.0, 166065.234375, 187500.0, -37545.72265625, -7907.30908203125, -187500.015625, -9414.4873046875, 1295.708251953125, 3039.099609375, 0.024000000208616257, 0.9460000395774841, 0.1860000044107437, 192.0, 0.0, 0.0, 0.0, 0.0, 0.0, 0.0, 0.0, 0.0, 0.0, 1.6154787602654753E9, 2021-03-11 17:06:00.265
243.0, 166347.4375, 187500.0, -37544.203125, -7915.95947265625, -187500.015625, -9088.978515625, 1648.4410400390625, 3359.556396484375, 0.024000000208616257, 0.9460000395774841, 0.1860000044107437, 192.0, 0.0, 0.0, 0.0, 0.0, 0.0, 0.0, 0.0, 0.0, 0.0, 1.615478760265478E9, 2021-03-11 17:06:00.265
244.0, 166534.1875, 187500.0, -37290.15234375, -7771.34375, -187500.015625, -8897.9609375, 1825.645751953125, 3545.72412109375, 0.024000000208616257, 0.9460000395774841, 0.1860000044107437, 192.0, 0.0, 0.0, 0.0, 0.0, 0.0, 0.0, 0.0, 0.0, 0.0, 1.6154787602654805E9, 2021-03-11 17:06:00.265
245.0, 166395.125, 187500.0, -37135.34375, -7668.23486328125, -187500.015625, -9071.857421875, 1640.4615478515625, 3399.834228515625, 0.024000000208616257, 0.9460000395774841, 0.1860000044107437, 192.0, 0.0, 0.0, 0.0, 0.0, 0.0, 0.0, 0.0, 0.0, 0.0, 1.6154787602654836E9, 2021-03-11 17:06:00.265
246.0, 166092.875, 187500.0, -37272.16015625, -7771.2763671875, -187500.015625, -9412.20703125, 1311.4215087890625, 3074.14697265625, 0.024000000208616257, 0.9460000395774841, 0.1860000044107437, 192.0, 0.0, 0.0, 0.0, 0.0, 0.0, 0.0, 0.0, 0.0, 0.0, 1.6154787602654905E9, 2021-03-11 17:06:00.265
247.0, 166050.96875, 187500.0, -37549.25390625, -7931.73974609375, -187500.015625, -9425.08203125, 1323.6031494140625, 3061.18310546875, 0.024000000208616257, 0.9460000395774841, 0.1860000044107437, 192.0, 0.0, 0.0, 0.0, 0.0, 0.0, 0.0, 0.0, 0.0, 0.0, 1.615478760265496E9, 2021-03-11 17:06:00.265
248.0, 166339.328125, 187500.0, -37535.171875, -7934.0419921875, -187500.015625, -9100.69140625, 1665.763671875, 3379.00244140625, 0.024000000208616257, 0.9460000395774841, 0.1860000044107437, 192.0, 0.0, 0.0, 0.0, 0.0, 0.0, 0.0, 0.0, 0.0, 0.0, 1.6154787602654989E9, 2021-03-11 17:06:00.265
249.0, 166537.5625, 187500.0, -37277.94921875, -7784.486328125, -187500.015625, -8928.873046875, 1837.335693359375, 3551.13330078125, 0.024000000208616257, 0.9460000395774841, 0.1860000044107437, 192.0, 0.0, 0.0, 0.0, 0.0, 0.0, 0.0, 0.0, 0.0, 0.0, 1.615478760265502E9, 2021-03-11 17:06:00.265
250.0, 166412.59375, 187500.0, -37127.3203125, -7675.9462890625, -187500.015625, -9103.1943359375, 1641.86962890625, 3389.1279296875, 0.02800000086426735, 0.9480000734329224, 0.18800000846385956, 192.0, 0.0, 224.0, 29.0, 160.0, 5.0, 224.0, 0.0, 0.0, 0.0, 1.6154787602655046E9, 2021-03-11 17:06:00.265
251.0, 166119.5625, 187500.0, -37269.453125, -7766.560546875, -187500.015625, -9425.484375, 1342.982177734375, 3077.410400390625, 0.02800000086426735, 0.9480000734329224, 0.18800000846385956, 192.0, 0.0, 0.0, 0.0, 0.0, 0.0, 0.0, 0.0, 0.0, 0.0, 1.6154787602655082E9, 2021-03-11 17:06:00.265
252.0, 166093.59375, 187500.0, -37544.9375, -7912.38330078125, -187500.015625, -9407.9833984375, 1348.9053955078125, 3081.27734375, 0.02800000086426735, 0.9480000734329224, 0.18800000846385956, 192.0, 0.0, 0.0, 0.0, 0.0, 0.0, 0.0, 0.0, 0.0, 0.0, 1.6154787602655137E9, 2021-03-11 17:06:00.265
253.0, 166390.09375, 187500.0, -37520.10546875, -7898.1005859375, -187500.015625, -9066.783203125, 1704.499267578125, 3407.00927734375, 0.02800000086426735, 0.9480000734329224, 0.18800000846385956, 192.0, 0.0, 0.0, 0.0, 0.0, 0.0, 0.0, 0.0, 0.0, 0.0, 1.6154787602655163E9, 2021-03-11 17:06:00.265
254.0, 166568.453125, 187500.0, -37267.93359375, -7751.78564453125, -187500.015625, -8902.1630859375, 1848.6456298828125, 3567.33837890625, 0.02800000086426735, 0.9480000734329224, 0.18800000846385956, 192.0, 0.0, 0.0, 0.0, 0.0, 0.0, 0.0, 0.0, 0.0, 0.0, 1.6154787602655213E9, 2021-03-11 17:06:00.265
255.0, 166407.96875, 187500.0, -37142.921875, -7668.97265625, -187500.015625, -9107.4189453125, 1623.831787109375, 3383.070556640625, 0.02800000086426735, 0.9480000734329224, 0.18800000846385956, 192.0, 0.0, 0.0, 0.0, 0.0, 0.0, 0.0, 0.0, 0.0, 0.0, 1.6154787602655244E9, 2021-03-11 17:06:00.265
0.0, 166127.296875, 187500.0, -37277.25390625, -7758.02197265625, -187500.015625, -9415.4033203125, 1318.886962890625, 3088.183837890625, 0.02800000086426735, 0.9480000734329224, 0.18800000846385956, 192.0, 0.0, 0.0, 0.0, 0.0, 0.0, 0.0, 0.0, 0.0, 0.0, 1.6154787602655592E9, 2021-03-11 17:06:00.265
1.0, 166088.46875, 187500.0, -37535.640625, -7903.4423828125, -187500.015625, -9387.7548828125, 1357.1085205078125, 3107.65234375, 0.02800000086426735, 0.9480000734329224, 0.18800000846385956, 192.0, 0.0, 0.0, 0.0, 0.0, 0.0, 0.0, 0.0, 0.0, 0.0, 1.6154787602656033E9, 2021-03-11 17:06:00.265
2.0, 166386.734375, 187500.0, -37500.94921875, -7893.49609375, -187500.015625, -9058.580078125, 1705.5721435546875, 3422.58837890625, 0.02800000086426735, 0.9480000734329224, 0.18800000846385956, 192.0, 0.0, 0.0, 0.0, 0.0, 0.0, 0.0, 0.0, 0.0, 0.0, 1.6154787602656095E9, 2021-03-11 17:06:00.265
3.0, 166555.5625, 187500.0, -37245.13671875, -7746.98046875, -187500.015625, -8903.90625, 1859.97802734375, 3574.289794921875, 0.02800000086426735, 0.9480000734329224, 0.18800000846385956, 192.0, 0.0, 0.0, 0.0, 0.0, 0.0, 0.0, 0.0, 0.0, 0.0, 1.6154787602656157E9, 2021-03-11 17:06:00.265
4.0, 166398.921875, 187500.0, -37113.90625, -7658.66845703125, -187500.015625, -9103.955078125, 1642.7861328125, 3390.558349609375, 0.01600000075995922, 0.9480000734329224, 0.1900000125169754, 192.0, 0.0, 128.0, 29.0, 160.0, 5.0, 240.0, 0.0, 0.0, 0.0, 1.6154787602656205E9, 2021-03-11 17:06:00.265
5.0, 166102.125, 187500.0, -37271.77734375, -7773.19873046875, -187500.015625, -9432.3916015625, 1309.208740234375, 3070.74951171875, 0.01600000075995922, 0.9480000734329224, 0.1900000125169754, 192.0, 0.0, 0.0, 0.0, 0.0, 0.0, 0.0, 0.0, 0.0, 0.0, 1.615478760265625E9, 2021-03-11 17:06:00.265
6.0, 166090.0, 187500.0, -37534.96875, -7921.6591796875, -187500.015625, -9404.33984375, 1346.6478271484375, 3088.4521484375, 0.01600000075995922, 0.9480000734329224, 0.1900000125169754, 192.0, 0.0, 0.0, 0.0, 0.0, 0.0, 0.0, 0.0, 0.0, 0.0, 1.6154787602656286E9, 2021-03-11 17:06:00.265
7.0, 166378.640625, 187500.0, -37496.32421875, -7903.75537109375, -187500.015625, -9073.17578125, 1689.411865234375, 3406.472900390625, 0.01600000075995922, 0.9480000734329224, 0.1900000125169754, 192.0, 0.0, 0.0, 0.0, 0.0, 0.0, 0.0, 0.0, 0.0, 0.0, 1.6154787602656317E9, 2021-03-11 17:06:00.265
8.0, 166545.96875, 187500.0, -37231.8359375, -7753.61865234375, -187500.015625, -8927.5322265625, 1839.0120849609375, 3557.078857421875, 0.01600000075995922, 0.9480000734329224, 0.1900000125169754, 192.0, 0.0, 0.0, 0.0, 0.0, 0.0, 0.0, 0.0, 0.0, 0.0, 1.6154787602656689E9, 2021-03-11 17:06:00.265
9.0, 166381.0625, 187500.0, -37112.5, -7663.33984375, -187500.015625, -9122.1044921875, 1624.7034912109375, 3379.00244140625, 0.01600000075995922, 0.9480000734329224, 0.1900000125169754, 192.0, 0.0, 0.0, 0.0, 0.0, 0.0, 0.0, 0.0, 0.0, 0.0, 1.6154787602656767E9, 2021-03-11 17:06:00.265
10.0, 166114.828125, 187500.0, -37260.7578125, -7761.82177734375, -187500.015625, -9425.88671875, 1322.4632568359375, 3084.495849609375, 0.01600000075995922, 0.9480000734329224, 0.1900000125169754, 192.0, 0.0, 0.0, 0.0, 0.0, 0.0, 0.0, 0.0, 0.0, 0.0, 1.6154787602656837E9, 2021-03-11 17:06:00.265
11.0, 166122.109375, 187500.0, -37514.765625, -7900.80517578125, -187500.015625, -9377.47265625, 1392.71484375, 3125.0419921875, 0.01600000075995922, 0.9480000734329224, 0.1900000125169754, 192.0, 0.0, 0.0, 0.0, 0.0, 0.0, 0.0, 0.0, 0.0, 0.0, 1.6154787602656915E9, 2021-03-11 17:06:00.265
12.0, 166404.4375, 187500.0, -37478.59765625, -7894.099609375, -187500.015625, -9058.2001953125, 1721.84423828125, 3430.076171875, 0.01600000075995922, 0.9480000734329224, 0.1900000125169754, 192.0, 0.0, 0.0, 0.0, 0.0, 0.0, 0.0, 0.0, 0.0, 0.0, 1.6154787602657E9, 2021-03-11 17:06:00.265
13.0, 166555.15625, 187500.0, -37220.68359375, -7743.47119140625, -187500.015625, -8910.5, 1865.320068359375, 3577.93310546875, 0.01600000075995922, 0.9480000734329224, 0.1900000125169754, 192.0, 0.0, 0.0, 0.0, 0.0, 0.0, 0.0, 0.0, 0.0, 0.0, 1.6154787602657099E9, 2021-03-11 17:06:00.265
14.0, 166405.203125, 187500.0, -37106.0859375, -7659.361328125, -187500.015625, -9104.5361328125, 1653.7384033203125, 3392.18994140625, 0.01600000075995922, 0.9320000410079956, 0.20200000703334808, 192.0, 0.0, 128.0, 29.0, 32.0, 6.0, 80.0, 0.0, 0.0, 0.0, 1.6154787602657137E9, 2021-03-11 17:06:00.265
15.0, 166107.78125, 187500.0, -37278.99609375, -7764.34765625, -187500.015625, -9420.0302734375, 1334.533203125, 3079.2431640625, 0.01600000075995922, 0.9320000410079956, 0.20200000703334808, 192.0, 0.0, 0.0, 0.0, 0.0, 0.0, 0.0, 0.0, 0.0, 0.0, 1.6154787602657187E9, 2021-03-11 17:06:00.265
16.0, 166101.1875, 187500.0, -37542.7265625, -7911.0419921875, -187500.015625, -9373.3828125, 1378.4991455078125, 3114.782470703125, 0.01600000075995922, 0.9320000410079956, 0.20200000703334808, 192.0, 0.0, 0.0, 0.0, 0.0, 0.0, 0.0, 0.0, 0.0, 0.0, 1.6154787602657244E9, 2021-03-11 17:06:00.265
17.0, 166426.8125, 187500.0, -37483.58203125, -7876.28515625, -187500.015625, -9007.5068359375, 1731.991943359375, 3457.546630859375, 0.01600000075995922, 0.9320000410079956, 0.20200000703334808, 192.0, 0.0, 0.0, 0.0, 0.0, 0.0, 0.0, 0.0, 0.0, 0.0, 1.6154787602657294E9, 2021-03-11 17:06:00.265
18.0, 166583.828125, 187500.0, -37223.296875, -7713.67626953125, -187500.015625, -8866.556640625, 1864.716552734375, 3596.30615234375, 0.01600000075995922, 0.9320000410079956, 0.20200000703334808, 192.0, 0.0, 0.0, 0.0, 0.0, 0.0, 0.0, 0.0, 0.0, 0.0, 1.615478760265742E9, 2021-03-11 17:06:00.265
19.0, 166386.0625, 187500.0, -37135.72265625, -7658.400390625, -187500.015625, -9109.7216796875, 1622.2672119140625, 3372.945068359375, 0.01600000075995922, 0.9320000410079956, 0.20200000703334808, 192.0, 0.0, 0.0, 0.0, 0.0, 0.0, 0.0, 0.0, 0.0, 0.0, 1.6154787602657552E9, 2021-03-11 17:06:00.265
20.0, 166106.765625, 187500.0, -37312.45703125, -7783.32421875, -187500.015625, -9425.640625, 1306.705322265625, 3063.75341796875, 0.01600000075995922, 0.9320000410079956, 0.20200000703334808, 192.0, 0.0, 0.0, 0.0, 0.0, 0.0, 0.0, 0.0, 0.0, 0.0, 1.6154787602657588E9, 2021-03-11 17:06:00.265
21.0, 166138.25, 187500.0, -37554.05859375, -7915.0205078125, -187500.015625, -9345.8671875, 1388.1103515625, 3125.93603515625, 0.01600000075995922, 0.9320000410079956, 0.20200000703334808, 192.0, 0.0, 0.0, 0.0, 0.0, 0.0, 0.0, 0.0, 0.0, 0.0, 1.6154787602657623E9, 2021-03-11 17:06:00.265
22.0, 166431.671875, 187500.0, -37493.62109375, -7896.33447265625, -187500.015625, -9024.091796875, 1729.4215087890625, 3443.330810546875, 0.01600000075995922, 0.9320000410079956, 0.20200000703334808, 192.0, 0.0, 0.0, 0.0, 0.0, 0.0, 0.0, 0.0, 0.0, 0.0, 1.6154787602657676E9, 2021-03-11 17:06:00.265
23.0, 166560.09375, 187500.0, -37234.71875, -7753.46240234375, -187500.015625, -8924.58203125, 1832.19482421875, 3552.876708984375, 0.01600000075995922, 0.9320000410079956, 0.20200000703334808, 192.0, 0.0, 0.0, 0.0, 0.0, 0.0, 0.0, 0.0, 0.0, 0.0, 1.6154787602657704E9, 2021-03-11 17:06:00.265
24.0, 166397.875, 187500.0, -37133.98046875, -7679.63427734375, -187500.015625, -9148.76953125, 1598.0155029296875, 3344.513671875, 0.020000001415610313, 0.9360000491142273, 0.20800000429153442, 192.0, 0.0, 160.0, 29.0, 64.0, 6.0, 128.0, 0.0, 0.0, 0.0, 1.6154787602657735E9, 2021-03-11 17:06:00.265
25.0, 166098.515625, 187500.0, -37302.46875, -7789.9404296875, -187500.015625, -9459.2802734375, 1311.44384765625, 3051.638916015625, 0.020000001415610313, 0.9360000491142273, 0.20800000429153442, 192.0, 0.0, 0.0, 0.0, 0.0, 0.0, 0.0, 0.0, 0.0, 0.0, 1.6154787602657769E9, 2021-03-11 17:06:00.265
26.0, 166124.65625, 187500.0, -37556.8984375, -7924.0732421875, -187500.015625, -9373.248046875, 1407.4222412109375, 3123.074951171875, 0.020000001415610313, 0.9360000491142273, 0.20800000429153442, 192.0, 0.0, 0.0, 0.0, 0.0, 0.0, 0.0, 0.0, 0.0, 0.0, 1.6154787602657795E9, 2021-03-11 17:06:00.265
27.0, 166446.3125, 187500.0, -37475.08984375, -7879.8388671875, -187500.015625, -9015.3076171875, 1744.084228515625, 3459.111083984375, 0.020000001415610313, 0.9360000491142273, 0.20800000429153442, 192.0, 0.0, 0.0, 0.0, 0.0, 0.0, 0.0, 0.0, 0.0, 0.0, 1.615478760265782E9, 2021-03-11 17:06:00.265
28.0, 166585.78125, 187500.0, -37205.86328125, -7720.02392578125, -187500.015625, -8899.615234375, 1823.5223388671875, 3562.197265625, 0.020000001415610313, 0.9360000491142273, 0.20800000429153442, 192.0, 0.0, 0.0, 0.0, 0.0, 0.0, 0.0, 0.0, 0.0, 0.0, 1.6154787602657852E9, 2021-03-11 17:06:00.265
29.0, 166388.8125, 187500.0, -37116.390625, -7657.05908203125, -187500.015625, -9141.7734375, 1578.9942626953125, 3339.23876953125, 0.020000001415610313, 0.9360000491142273, 0.20800000429153442, 192.0, 0.0, 0.0, 0.0, 0.0, 0.0, 0.0, 0.0, 0.0, 0.0, 1.6154787602657895E9, 2021-03-11 17:06:00.265
30.0, 166111.703125, 187500.0, -37297.640625, -7773.24365234375, -187500.015625, -9438.626953125, 1292.1766357421875, 3067.240478515625, 0.020000001415610313, 0.9360000491142273, 0.20800000429153442, 192.0, 0.0, 0.0, 0.0, 0.0, 0.0, 0.0, 0.0, 0.0, 0.0, 1.615478760265792E9, 2021-03-11 17:06:00.265
31.0, 166157.78125, 187500.0, -37550.50390625, -7909.41015625, -187500.015625, -9347.0966796875, 1411.7584228515625, 3158.882568359375, 0.020000001415610313, 0.9360000491142273, 0.20800000429153442, 192.0, 0.0, 0.0, 0.0, 0.0, 0.0, 0.0, 0.0, 0.0, 0.0, 1.6154787602658012E9, 2021-03-11 17:06:00.265
32.0, 166452.625, 187500.0, -37475.1796875, -7875.9052734375, -187500.015625, -9011.9326171875, 1773.7003173828125, 3482.826416015625, 0.020000001415610313, 0.9360000491142273, 0.20800000429153442, 192.0, 0.0, 0.0, 0.0, 0.0, 0.0, 0.0, 0.0, 0.0, 0.0, 1.6154787602658043E9, 2021-03-11 17:06:00.265
33.0, 166569.171875, 187500.0, -37218.78125, -7722.3486328125, -187500.015625, -8910.0087890625, 1884.56494140625, 3582.91748046875, 0.020000001415610313, 0.9360000491142273, 0.20800000429153442, 192.0, 0.0, 0.0, 0.0, 0.0, 0.0, 0.0, 0.0, 0.0, 0.0, 1.615478760265807E9, 2021-03-11 17:06:00.265
34.0, 166369.8125, 187500.0, -37134.62890625, -7663.89892578125, -187500.015625, -9149.5966796875, 1609.057373046875, 3355.1083984375, 0.020000001415610313, 0.9480000734329224, 0.2120000123977661, 192.0, 0.0, 160.0, 29.0, 160.0, 6.0, 160.0, 0.0, 0.0, 0.0, 1.6154787602658093E9, 2021-03-11 17:06:00.265
35.0, 166095.8125, 187500.0, -37323.2109375, -7790.40966796875, -187500.015625, -9451.2333984375, 1281.0230712890625, 3064.714599609375, 0.020000001415610313, 0.9480000734329224, 0.2120000123977661, 192.0, 0.0, 0.0, 0.0, 0.0, 0.0, 0.0, 0.0, 0.0, 0.0, 1.615478760265812E9, 2021-03-11 17:06:00.265
36.0, 166173.8125, 187500.0, -37549.1640625, -7908.091796875, -187500.015625, -9328.58984375, 1438.0888671875, 3173.0087890625, 0.020000001415610313, 0.9480000734329224, 0.2120000123977661, 192.0, 0.0, 0.0, 0.0, 0.0, 0.0, 0.0, 0.0, 0.0, 0.0, 1.6154787602658143E9, 2021-03-11 17:06:00.265
37.0, 166443.40625, 187500.0, -37467.06640625, -7865.15380859375, -187500.015625, -8990.4970703125, 1787.8265380859375, 3483.94384765625, 0.020000001415610313, 0.9480000734329224, 0.2120000123977661, 192.0, 0.0, 0.0, 0.0, 0.0, 0.0, 0.0, 0.0, 0.0, 0.0, 1.615478760265817E9, 2021-03-11 17:06:00.265
38.0, 166549.75, 187500.0, -37220.16796875, -7719.3759765625, -187500.015625, -8905.26953125, 1838.140380859375, 3577.687255859375, 0.020000001415610313, 0.9480000734329224, 0.2120000123977661, 192.0, 0.0, 0.0, 0.0, 0.0, 0.0, 0.0, 0.0, 0.0, 0.0, 1.6154787602658195E9, 2021-03-11 17:06:00.265
39.0, 166343.78125, 187500.0, -37152.375, -7671.83349609375, -187500.015625, -9160.1689453125, 1588.203125, 3348.469970703125, 0.020000001415610313, 0.9480000734329224, 0.2120000123977661, 192.0, 0.0, 0.0, 0.0, 0.0, 0.0, 0.0, 0.0, 0.0, 0.0, 1.615478760265823E9, 2021-03-11 17:06:00.265
40.0, 166068.46875, 187500.0, -37356.71484375, -7808.04541015625, -187500.015625, -9457.537109375, 1306.8170166015625, 3053.829345703125, 0.020000001415610313, 0.9480000734329224, 0.2120000123977661, 192.0, 0.0, 0.0, 0.0, 0.0, 0.0, 0.0, 0.0, 0.0, 0.0, 1.6154787602658253E9, 2021-03-11 17:06:00.265
41.0, 166126.9375, 187500.0, -37605.6015625, -7937.6630859375, -187500.015625, -9333.216796875, 1415.2900390625, 3146.700927734375, 0.020000001415610313, 0.9480000734329224, 0.2120000123977661, 192.0, 0.0, 0.0, 0.0, 0.0, 0.0, 0.0, 0.0, 0.0, 0.0, 1.615478760265828E9, 2021-03-11 17:06:00.265
42.0, 166431.734375, 187500.0, -37518.453125, -7887.75146484375, -187500.015625, -8996.599609375, 1758.679931640625, 3481.55224609375, 0.020000001415610313, 0.9480000734329224, 0.2120000123977661, 192.0, 0.0, 0.0, 0.0, 0.0, 0.0, 0.0, 0.0, 0.0, 0.0, 1.6154787602658308E9, 2021-03-11 17:06:00.265
43.0, 166516.953125, 187500.0, -37272.62890625, -7740.54296875, -187500.015625, -8936.271484375, 1819.78955078125, 3550.753173828125, 0.020000001415610313, 0.9480000734329224, 0.2120000123977661, 192.0, 0.0, 0.0, 0.0, 0.0, 0.0, 0.0, 0.0, 0.0, 0.0, 1.6154787602658336E9, 2021-03-11 17:06:00.265
44.0, 166309.359375, 187500.0, -37195.26953125, -7692.53125, -187500.015625, -9187.8408203125, 1549.7135009765625, 3306.22509765625, 0.024000000208616257, 0.9420000314712524, 0.2160000056028366, 192.0, 0.0, 192.0, 29.0, 112.0, 6.0, 192.0, 0.0, 0.0, 0.0, 1.6154787602658365E9, 2021-03-11 17:06:00.265
45.0, 166070.5, 187500.0, -37379.53515625, -7814.3037109375, -187500.015625, -9468.17578125, 1274.6976318359375, 3036.350341796875, 0.024000000208616257, 0.9420000314712524, 0.2160000056028366, 192.0, 0.0, 0.0, 0.0, 0.0, 0.0, 0.0, 0.0, 0.0, 0.0, 1.615478760265839E9, 2021-03-11 17:06:00.265
46.0, 166130.203125, 187500.0, -37609.04296875, -7939.25, -187500.015625, -9348.169921875, 1418.151123046875, 3154.188720703125, 0.024000000208616257, 0.9420000314712524, 0.2160000056028366, 192.0, 0.0, 0.0, 0.0, 0.0, 0.0, 0.0, 0.0, 0.0, 0.0, 1.615478760265843E9, 2021-03-11 17:06:00.265
47.0, 166426.640625, 187500.0, -37507.1640625, -7885.20361328125, -187500.015625, -9015.2177734375, 1770.01220703125, 3477.17138671875, 0.024000000208616257, 0.9420000314712524, 0.2160000056028366, 192.0, 0.0, 0.0, 0.0, 0.0, 0.0, 0.0, 0.0, 0.0, 0.0, 1.6154787602658458E9, 2021-03-11 17:06:00.265
48.0, 166522.796875, 187500.0, -37250.5, -7731.84814453125, -187500.015625, -8953.572265625, 1827.6796875, 3546.037109375, 0.024000000208616257, 0.9420000314712524, 0.2160000056028366, 192.0, 0.0, 0.0, 0.0, 0.0, 0.0, 0.0, 0.0, 0.0, 0.0, 1.615478760265849E9, 2021-03-11 17:06:00.265
49.0, 166317.890625, 187500.0, -37176.203125, -7677.62255859375, -187500.015625, -9196.7587890625, 1550.92041015625, 3311.544921875, 0.024000000208616257, 0.9420000314712524, 0.2160000056028366, 192.0, 0.0, 0.0, 0.0, 0.0, 0.0, 0.0, 0.0, 0.0, 0.0, 1.6154787602658517E9, 2021-03-11 17:06:00.265
50.0, 166054.65625, 187500.0, -37366.6171875, -7805.876953125, -187500.015625, -9463.974609375, 1268.26025390625, 3045.15673828125, 0.024000000208616257, 0.9420000314712524, 0.2160000056028366, 192.0, 0.0, 0.0, 0.0, 0.0, 0.0, 0.0, 0.0, 0.0, 0.0, 1.6154787602658548E9, 2021-03-11 17:06:00.265
51.0, 166151.484375, 187500.0, -37584.79296875, -7921.94970703125, -187500.015625, -9307.9140625, 1458.6971435546875, 3178.3955078125, 0.024000000208616257, 0.9420000314712524, 0.2160000056028366, 192.0, 0.0, 0.0, 0.0, 0.0, 0.0, 0.0, 0.0, 0.0, 0.0, 1.6154787602658584E9, 2021-03-11 17:06:00.265
52.0, 166446.078125, 187500.0, -37481.5703125, -7868.12646484375, -187500.015625, -8960.166015625, 1813.888671875, 3491.74462890625, 0.024000000208616257, 0.9420000314712524, 0.2160000056028366, 192.0, 0.0, 0.0, 0.0, 0.0, 0.0, 0.0, 0.0, 0.0, 0.0, 1.6154787602658613E9, 2021-03-11 17:06:00.265
53.0, 166532.515625, 187500.0, -37228.125, -7717.47607421875, -187500.015625, -8891.2998046875, 1830.8089599609375, 3557.50341796875, 0.024000000208616257, 0.9420000314712524, 0.2160000056028366, 192.0, 0.0, 0.0, 0.0, 0.0, 0.0, 0.0, 0.0, 0.0, 0.0, 1.615478760265864E9, 2021-03-11 17:06:00.265
54.0, 166323.546875, 187500.0, -37163.1484375, -7668.70458984375, -187500.015625, -9134.173828125, 1553.8485107421875, 3320.82080078125, 0.018000001087784767, 0.9280000329017639, 0.2240000069141388, 192.0, 0.0, 144.0, 29.0, 0.0, 7.0, 0.0, 0.0, 0.0, 0.0, 1.6154787602658668E9, 2021-03-11 17:06:00.265
55.0, 166074.6875, 187500.0, -37371.890625, -7806.03369140625, -187500.015625, -9410.486328125, 1292.914306640625, 3053.516357421875, 0.018000001087784767, 0.9280000329017639, 0.2240000069141388, 192.0, 0.0, 0.0, 0.0, 0.0, 0.0, 0.0, 0.0, 0.0, 0.0, 1.6154787602658732E9, 2021-03-11 17:06:00.265
56.0, 166172.671875, 187500.0, -37600.99609375, -7934.35498046875, -187500.015625, -9254.2255859375, 1454.78564453125, 3181.92724609375, 0.018000001087784767, 0.9280000329017639, 0.2240000069141388, 192.0, 0.0, 0.0, 0.0, 0.0, 0.0, 0.0, 0.0, 0.0, 0.0, 1.6154787602658756E9, 2021-03-11 17:06:00.265
57.0, 166435.3125, 187500.0, -37476.67578125, -7878.0732421875, -187500.015625, -8918.033203125, 1800.1871337890625, 3505.625244140625, 0.018000001087784767, 0.9280000329017639, 0.2240000069141388, 192.0, 0.0, 0.0, 0.0, 0.0, 0.0, 0.0, 0.0, 0.0, 0.0, 1.6154787602658794E9, 2021-03-11 17:06:00.265
58.0, 166508.796875, 187500.0, -37214.51171875, -7723.33203125, -187500.015625, -8872.6806640625, 1831.7030029296875, 3568.187744140625, 0.018000001087784767, 0.9280000329017639, 0.2240000069141388, 192.0, 0.0, 0.0, 0.0, 0.0, 0.0, 0.0, 0.0, 0.0, 0.0, 1.6154787602658837E9, 2021-03-11 17:06:00.265
59.0, 166296.5, 187500.0, -37158.1875, -7681.6015625, -187500.015625, -9141.8857421875, 1554.4296875, 3320.75390625, 0.018000001087784767, 0.9280000329017639, 0.2240000069141388, 192.0, 0.0, 0.0, 0.0, 0.0, 0.0, 0.0, 0.0, 0.0, 0.0, 1.6154787602658875E9, 2021-03-11 17:06:00.265
60.0, 166044.796875, 187500.0, -37374.171875, -7824.49609375, -187500.015625, -9406.798828125, 1289.7626953125, 3062.345458984375, 0.018000001087784767, 0.9280000329017639, 0.2240000069141388, 192.0, 0.0, 0.0, 0.0, 0.0, 0.0, 0.0, 0.0, 0.0, 0.0, 1.6154787602658908E9, 2021-03-11 17:06:00.265
61.0, 166157.625, 187500.0, -37581.41796875, -7933.75146484375, -187500.015625, -9244.904296875, 1460.26171875, 3202.37890625, 0.018000001087784767, 0.9280000329017639, 0.2240000069141388, 192.0, 0.0, 0.0, 0.0, 0.0, 0.0, 0.0, 0.0, 0.0, 0.0, 1.6154787602658937E9, 2021-03-11 17:06:00.265
62.0, 166453.609375, 187500.0, -37455.421875, -7870.74169921875, -187500.015625, -8921.4970703125, 1788.8994140625, 3523.037109375, 0.018000001087784767, 0.9280000329017639, 0.2240000069141388, 192.0, 0.0, 0.0, 0.0, 0.0, 0.0, 0.0, 0.0, 0.0, 0.0, 1.615478760265898E9, 2021-03-11 17:06:00.265
63.0, 166508.59375, 187500.0, -37206.46484375, -7726.5283203125, -187500.015625, -8887.09765625, 1805.3726806640625, 3570.288818359375, 0.024000000208616257, 0.9440000653266907, 0.2240000069141388, 192.0, 0.0, 192.0, 29.0, 128.0, 7.0, 0.0, 0.0, 0.0, 0.0, 1.615478760265902E9, 2021-03-11 17:06:00.265
64.0, 166280.484375, 187500.0, -37156.4453125, -7691.10107421875, -187500.015625, -9150.4912109375, 1536.3470458984375, 3322.609130859375, 0.024000000208616257, 0.9440000653266907, 0.2240000069141388, 192.0, 0.0, 0.0, 0.0, 0.0, 0.0, 0.0, 0.0, 0.0, 0.0, 1.6154787602659051E9, 2021-03-11 17:06:00.265
65.0, 166042.234375, 187500.0, -37368.40625, -7828.18408203125, -187500.015625, -9390.2802734375, 1295.708251953125, 3074.6611328125, 0.024000000208616257, 0.9440000653266907, 0.2240000069141388, 192.0, 0.0, 0.0, 0.0, 0.0, 0.0, 0.0, 0.0, 0.0, 0.0, 1.6154787602659085E9, 2021-03-11 17:06:00.265
66.0, 166153.65625, 187500.0, -37579.4296875, -7955.2314453125, -187500.015625, -9235.0478515625, 1456.3055419921875, 3214.359619140625, 0.024000000208616257, 0.9440000653266907, 0.2240000069141388, 192.0, 0.0, 0.0, 0.0, 0.0, 0.0, 0.0, 0.0, 0.0, 0.0, 1.6154787602659123E9, 2021-03-11 17:06:00.265
67.0, 166454.28125, 187500.0, -37441.91796875, -7886.0751953125, -187500.015625, -8914.568359375, 1792.296875, 3529.13916015625, 0.024000000208616257, 0.9440000653266907, 0.2240000069141388, 192.0, 0.0, 0.0, 0.0, 0.0, 0.0, 0.0, 0.0, 0.0, 0.0, 1.6154787602659152E9, 2021-03-11 17:06:00.265
68.0, 166470.890625, 187500.0, -37198.5546875, -7739.89453125, -187500.015625, -8896.0166015625, 1788.5865478515625, 3551.960205078125, 0.024000000208616257, 0.9440000653266907, 0.2240000069141388, 192.0, 0.0, 0.0, 0.0, 0.0, 0.0, 0.0, 0.0, 0.0, 0.0, 1.6154787602659183E9, 2021-03-11 17:06:00.265
69.0, 166241.859375, 187500.0, -37168.6484375, -7718.43701171875, -187500.015625, -9182.990234375, 1485.3404541015625, 3280.45361328125, 0.024000000208616257, 0.9440000653266907, 0.2240000069141388, 192.0, 0.0, 0.0, 0.0, 0.0, 0.0, 0.0, 0.0, 0.0, 0.0, 1.6154787602659209E9, 2021-03-11 17:06:00.265
70.0, 166024.34375, 187500.0, -37376.02734375, -7846.2890625, -187500.015625, -9419.337890625, 1261.9346923828125, 3053.225830078125, 0.024000000208616257, 0.9440000653266907, 0.2240000069141388, 192.0, 0.0, 0.0, 0.0, 0.0, 0.0, 0.0, 0.0, 0.0, 0.0, 1.6154787602659233E9, 2021-03-11 17:06:00.265
71.0, 166149.65625, 187500.0, -37572.03125, -7953.71142578125, -187500.015625, -9241.865234375, 1456.57373046875, 3220.528564453125, 0.024000000208616257, 0.9440000653266907, 0.2240000069141388, 192.0, 0.0, 0.0, 0.0, 0.0, 0.0, 0.0, 0.0, 0.0, 0.0, 1.6154787602659285E9, 2021-03-11 17:06:00.265
72.0, 166466.9375, 187500.0, -37416.41796875, -7867.27734375, -187500.015625, -8899.7939453125, 1809.306640625, 3552.92138671875, 0.024000000208616257, 0.9440000653266907, 0.2240000069141388, 192.0, 0.0, 0.0, 0.0, 0.0, 0.0, 0.0, 0.0, 0.0, 0.0, 1.6154787602659364E9, 2021-03-11 17:06:00.265
73.0, 166500.53125, 187500.0, -37173.65234375, -7728.763671875, -187500.015625, -8891.92578125, 1819.342529296875, 3576.971923828125, 0.020000001415610313, 0.9420000314712524, 0.21400001645088196, 192.0, 0.0, 160.0, 29.0, 112.0, 6.0, 176.0, 0.0, 0.0, 0.0, 1.615478760265941E9, 2021-03-11 17:06:00.265
74.0, 166277.28125, 187500.0, -37140.796875, -7703.751953125, -187500.015625, -9173.9375, 1529.3734130859375, 3312.26025390625, 0.020000001415610313, 0.9420000314712524, 0.21400001645088196, 192.0, 0.0, 0.0, 0.0, 0.0, 0.0, 0.0, 0.0, 0.0, 0.0, 1.6154787602659435E9, 2021-03-11 17:06:00.265
75.0, 166020.4375, 187500.0, -37393.59375, -7865.17626953125, -187500.015625, -9436.3916015625, 1264.169921875, 3045.291015625, 0.020000001415610313, 0.9420000314712524, 0.21400001645088196, 192.0, 0.0, 0.0, 0.0, 0.0, 0.0, 0.0, 0.0, 0.0, 0.0, 1.6154787602659476E9, 2021-03-11 17:06:00.265
76.0, 166172.703125, 187500.0, -37574.30859375, -7951.7890625, -187500.015625, -9221.0107421875, 1472.510498046875, 3236.3759765625, 0.020000001415610313, 0.9420000314712524, 0.21400001645088196, 192.0, 0.0, 0.0, 0.0, 0.0, 0.0, 0.0, 0.0, 0.0, 0.0, 1.6154787602659557E9, 2021-03-11 17:06:00.265
77.0, 166472.96875, 187500.0, -37422.2734375, -7864.4833984375, -187500.015625, -8895.7705078125, 1812.8604736328125, 3544.71826171875, 0.020000001415610313, 0.9420000314712524, 0.21400001645088196, 192.0, 0.0, 0.0, 0.0, 0.0, 0.0, 0.0, 0.0, 0.0, 0.0, 1.6154787602659583E9, 2021-03-11 17:06:00.265
78.0, 166515.140625, 187500.0, -37177.140625, -7715.7548828125, -187500.015625, -8898.5419921875, 1826.226806640625, 3564.611328125, 0.020000001415610313, 0.9420000314712524, 0.21400001645088196, 192.0, 0.0, 0.0, 0.0, 0.0, 0.0, 0.0, 0.0, 0.0, 0.0, 1.6154787602659647E9, 2021-03-11 17:06:00.265
79.0, 166278.484375, 187500.0, -37150.54296875, -7693.5595703125, -187500.015625, -9177.0, 1550.0933837890625, 3304.146484375, 0.020000001415610313, 0.9420000314712524, 0.21400001645088196, 192.0, 0.0, 0.0, 0.0, 0.0, 0.0, 0.0, 0.0, 0.0, 0.0, 1.615478760265968E9, 2021-03-11 17:06:00.265
80.0, 166014.921875, 187500.0, -37380.85546875, -7846.40087890625, -187500.015625, -9414.017578125, 1302.3690185546875, 3068.4697265625, 0.020000001415610313, 0.9420000314712524, 0.21400001645088196, 192.0, 0.0, 0.0, 0.0, 0.0, 0.0, 0.0, 0.0, 0.0, 0.0, 1.6154787602659714E9, 2021-03-11 17:06:00.265
81.0, 166152.640625, 187500.0, -37579.16015625, -7959.232421875, -187500.015625, -9237.283203125, 1488.96142578125, 3235.817138671875, 0.020000001415610313, 0.9420000314712524, 0.21400001645088196, 192.0, 0.0, 0.0, 0.0, 0.0, 0.0, 0.0, 0.0, 0.0, 0.0, 1.6154787602659755E9, 2021-03-11 17:06:00.265
82.0, 166474.765625, 187500.0, -37412.68359375, -7862.0693359375, -187500.015625, -8903.705078125, 1814.4698486328125, 3548.94287109375, 0.020000001415610313, 0.9420000314712524, 0.21400001645088196, 192.0, 0.0, 0.0, 0.0, 0.0, 0.0, 0.0, 0.0, 0.0, 0.0, 1.6154787602659788E9, 2021-03-11 17:06:00.265
83.0, 166510.921875, 187500.0, -37165.7421875, -7700.578125, -187500.015625, -8899.7041015625, 1814.20166015625, 3563.94091796875, 0.018000001087784767, 0.9360000491142273, 0.21000000834465027, 192.0, 0.0, 144.0, 29.0, 64.0, 6.0, 144.0, 0.0, 0.0, 0.0, 1.6154787602659824E9, 2021-03-11 17:06:00.265
84.0, 166250.296875, 187500.0, -37158.3671875, -7691.369140625, -187500.015625, -9188.220703125, 1519.6727294921875, 3294.289306640625, 0.018000001087784767, 0.9360000491142273, 0.21000000834465027, 192.0, 0.0, 0.0, 0.0, 0.0, 0.0, 0.0, 0.0, 0.0, 0.0, 1.6154787602659862E9, 2021-03-11 17:06:00.265
85.0, 166034.359375, 187500.0, -37398.66796875, -7847.0712890625, -187500.015625, -9411.783203125, 1293.607177734375, 3070.66015625, 0.018000001087784767, 0.9360000491142273, 0.21000000834465027, 192.0, 0.0, 0.0, 0.0, 0.0, 0.0, 0.0, 0.0, 0.0, 0.0, 1.6154787602659895E9, 2021-03-11 17:06:00.265
86.0, 166189.328125, 187500.0, -37573.81640625, -7949.017578125, -187500.015625, -9210.21484375, 1521.1256103515625, 3258.817138671875, 0.018000001087784767, 0.9360000491142273, 0.21000000834465027, 192.0, 0.0, 0.0, 0.0, 0.0, 0.0, 0.0, 0.0, 0.0, 0.0, 1.6154787602659936E9, 2021-03-11 17:06:00.265
87.0, 166473.390625, 187500.0, -37415.96875, -7871.36767578125, -187500.015625, -8911.0146484375, 1812.6817626953125, 3550.753173828125, 0.018000001087784767, 0.9360000491142273, 0.21000000834465027, 192.0, 0.0, 0.0, 0.0, 0.0, 0.0, 0.0, 0.0, 0.0, 0.0, 1.6154787602659972E9, 2021-03-11 17:06:00.265
88.0, 166498.578125, 187500.0, -37172.359375, -7718.7275390625, -187500.015625, -8919.0166015625, 1807.7196044921875, 3553.569580078125, 0.018000001087784767, 0.9360000491142273, 0.21000000834465027, 192.0, 0.0, 0.0, 0.0, 0.0, 0.0, 0.0, 0.0, 0.0, 0.0, 1.6154787602660055E9, 2021-03-11 17:06:00.266
89.0, 166256.375, 187500.0, -37161.94140625, -7712.111328125, -187500.015625, -9204.068359375, 1508.94384765625, 3274.932861328125, 0.018000001087784767, 0.9360000491142273, 0.21000000834465027, 192.0, 0.0, 0.0, 0.0, 0.0, 0.0, 0.0, 0.0, 0.0, 0.0, 1.6154787602660108E9, 2021-03-11 17:06:00.266
90.0, 166050.171875, 187500.0, -37399.25, -7870.13818359375, -187500.015625, -9419.9638671875, 1263.9464111328125, 3059.819580078125, 0.018000001087784767, 0.9360000491142273, 0.21000000834465027, 192.0, 0.0, 0.0, 0.0, 0.0, 0.0, 0.0, 0.0, 0.0, 0.0, 1.6154787602660174E9, 2021-03-11 17:06:00.266
91.0, 166169.796875, 187500.0, -37568.87890625, -7968.32958984375, -187500.015625, -9209.8798828125, 1512.497802734375, 3268.96484375, 0.018000001087784767, 0.9360000491142273, 0.21000000834465027, 192.0, 0.0, 0.0, 0.0, 0.0, 0.0, 0.0, 0.0, 0.0, 0.0, 1.6154787602660213E9, 2021-03-11 17:06:00.266
92.0, 166476.59375, 187500.0, -37376.49609375, -7858.78369140625, -187500.015625, -8885.33203125, 1853.5406494140625, 3583.543212890625, 0.018000001087784767, 0.9360000491142273, 0.21000000834465027, 192.0, 0.0, 0.0, 0.0, 0.0, 0.0, 0.0, 0.0, 0.0, 0.0, 1.6154787602660272E9, 2021-03-11 17:06:00.266
93.0, 166491.453125, 187500.0, -37135.07421875, -7705.96484375, -187500.015625, -8904.46484375, 1819.342529296875, 3563.53857421875, 0.014000000432133675, 0.9460000395774841, 0.21800000965595245, 192.0, 0.0, 112.0, 29.0, 144.0, 6.0, 208.0, 0.0, 0.0, 0.0, 1.6154787602660315E9, 2021-03-11 17:06:00.266
94.0, 166234.59375, 187500.0, -37138.5859375, -7711.01611328125, -187500.015625, -9211.4892578125, 1505.6358642578125, 3276.7431640625, 0.014000000432133675, 0.9460000395774841, 0.21800000965595245, 192.0, 0.0, 0.0, 0.0, 0.0, 0.0, 0.0, 0.0, 0.0, 0.0, 1.6154787602660353E9, 2021-03-11 17:06:00.266
95.0, 166028.78125, 187500.0, -37381.48046875, -7863.94677734375, -187500.015625, -9419.8515625, 1297.205810546875, 3065.899169921875, 0.014000000432133675, 0.9460000395774841, 0.21800000965595245, 192.0, 0.0, 0.0, 0.0, 0.0, 0.0, 0.0, 0.0, 0.0, 0.0, 1.6154787602660396E9, 2021-03-11 17:06:00.266
96.0, 166194.953125, 187500.0, -37543.5546875, -7952.19140625, -187500.015625, -9190.2548828125, 1526.177001953125, 3270.305908203125, 0.014000000432133675, 0.9460000395774841, 0.21800000965595245, 192.0, 0.0, 0.0, 0.0, 0.0, 0.0, 0.0, 0.0, 0.0, 0.0, 1.6154787602660432E9, 2021-03-11 17:06:00.266
97.0, 166482.046875, 187500.0, -37371.95703125, -7856.99560546875, -187500.015625, -8892.1494140625, 1845.0469970703125, 3564.276123046875, 0.014000000432133675, 0.9460000395774841, 0.21800000965595245, 192.0, 0.0, 0.0, 0.0, 0.0, 0.0, 0.0, 0.0, 0.0, 0.0, 1.6154787602660477E9, 2021-03-11 17:06:00.266
98.0, 166485.234375, 187500.0, -37148.30859375, -7712.82666015625, -187500.015625, -8928.91796875, 1796.2308349609375, 3545.903076171875, 0.014000000432133675, 0.9460000395774841, 0.21800000965595245, 192.0, 0.0, 0.0, 0.0, 0.0, 0.0, 0.0, 0.0, 0.0, 0.0, 1.615478760266053E9, 2021-03-11 17:06:00.266
99.0, 166241.9375, 187500.0, -37137.578125, -7699.125, -187500.015625, -9205.431640625, 1504.3616943359375, 3272.317626953125, 0.014000000432133675, 0.9460000395774841, 0.21800000965595245, 192.0, 0.0, 0.0, 0.0, 0.0, 0.0, 0.0, 0.0, 0.0, 0.0, 1.615478760745544E9, 2021-03-11 17:06:00.745
100.0, 166046.921875, 187500.0, -37389.1484375, -7852.3017578125, -187500.015625, -9405.814453125, 1325.83837890625, 3064.111083984375, 0.014000000432133675, 0.9460000395774841, 0.21800000965595245, 192.0, 0.0, 0.0, 0.0, 0.0, 0.0, 0.0, 0.0, 0.0, 0.0, 1.6154787607456164E9, 2021-03-11 17:06:00.745
101.0, 166247.75, 187500.0, -37536.6484375, -7931.650390625, -187500.015625, -9170.0712890625, 1569.31591796875, 3283.627685546875, 0.014000000432133675, 0.9460000395774841, 0.21800000965595245, 192.0, 0.0, 0.0, 0.0, 0.0, 0.0, 0.0, 0.0, 0.0, 0.0, 1.615478760745664E9, 2021-03-11 17:06:00.745
102.0, 166498.109375, 187500.0, -37356.9609375, -7831.134765625, -187500.015625, -8870.9375, 1853.8759765625, 3572.50146484375, 0.014000000432133675, 0.9460000395774841, 0.21800000965595245, 192.0, 0.0, 0.0, 0.0, 0.0, 0.0, 0.0, 0.0, 0.0, 0.0, 1.615478760745702E9, 2021-03-11 17:06:00.745
103.0, 166487.703125, 187500.0, -37125.171875, -7683.7470703125, -187500.015625, -8916.9150390625, 1815.4757080078125, 3549.680419921875, 0.012000000104308128, 0.940000057220459, 0.22200001776218414, 192.0, 0.0, 96.0, 29.0, 96.0, 6.0, 240.0, 0.0, 0.0, 0.0, 1.6154787607457263E9, 2021-03-11 17:06:00.745
104.0, 166235.328125, 187500.0, -37143.1875, -7685.53515625, -187500.015625, -9217.166015625, 1526.6241455078125, 3271.714111328125, 0.012000000104308128, 0.940000057220459, 0.22200001776218414, 192.0, 0.0, 0.0, 0.0, 0.0, 0.0, 0.0, 0.0, 0.0, 0.0, 1.6154787607457297E9, 2021-03-11 17:06:00.745
105.0, 166030.71875, 187500.0, -37427.12109375, -7853.62060546875, -187500.015625, -9416.1416015625, 1338.04248046875, 3067.486328125, 0.012000000104308128, 0.940000057220459, 0.22200001776218414, 192.0, 0.0, 0.0, 0.0, 0.0, 0.0, 0.0, 0.0, 0.0, 0.0, 1.6154787607457328E9, 2021-03-11 17:06:00.745
106.0, 166227.8125, 187500.0, -37598.359375, -7935.0478515625, -187500.015625, -9174.18359375, 1591.6229248046875, 3288.27685546875, 0.012000000104308128, 0.940000057220459, 0.22200001776218414, 192.0, 0.0, 0.0, 0.0, 0.0, 0.0, 0.0, 0.0, 0.0, 0.0, 1.615478760745736E9, 2021-03-11 17:06:00.745
107.0, 166505.9375, 187500.0, -37427.01171875, -7834.8447265625, -187500.015625, -8887.7236328125, 1871.712646484375, 3552.0048828125, 0.012000000104308128, 0.940000057220459, 0.22200001776218414, 192.0, 0.0, 0.0, 0.0, 0.0, 0.0, 0.0, 0.0, 0.0, 0.0, 1.6154787607457387E9, 2021-03-11 17:06:00.745
108.0, 166502.25, 187500.0, -37187.8046875, -7679.0087890625, -187500.015625, -8931.578125, 1824.7069091796875, 3522.0537109375, 0.012000000104308128, 0.940000057220459, 0.22200001776218414, 192.0, 0.0, 0.0, 0.0, 0.0, 0.0, 0.0, 0.0, 0.0, 0.0, 1.615478760745742E9, 2021-03-11 17:06:00.745
109.0, 166228.375, 187500.0, -37218.3125, -7699.10302734375, -187500.015625, -9263.92578125, 1510.8214111328125, 3219.545166015625, 0.012000000104308128, 0.940000057220459, 0.22200001776218414, 192.0, 0.0, 0.0, 0.0, 0.0, 0.0, 0.0, 0.0, 0.0, 0.0, 1.6154787607457452E9, 2021-03-11 17:06:00.745
110.0, 166049.734375, 187500.0, -37477.9296875, -7861.0859375, -187500.015625, -9447.322265625, 1345.5526123046875, 3041.848876953125, 0.012000000104308128, 0.940000057220459, 0.22200001776218414, 192.0, 0.0, 0.0, 0.0, 0.0, 0.0, 0.0, 0.0, 0.0, 0.0, 1.6154787607457483E9, 2021-03-11 17:06:00.745
111.0, 166240.984375, 187500.0, -37603.65625, -7933.4609375, -187500.015625, -9168.0595703125, 1585.655029296875, 3281.101806640625, 0.012000000104308128, 0.940000057220459, 0.22200001776218414, 192.0, 0.0, 0.0, 0.0, 0.0, 0.0, 0.0, 0.0, 0.0, 0.0, 1.6154787607457557E9, 2021-03-11 17:06:00.745
112.0, 166503.375, 187500.0, -37411.09765625, -7825.63623046875, -187500.015625, -8882.470703125, 1885.302490234375, 3563.896240234375, 0.012000000104308128, 0.940000057220459, 0.22200001776218414, 192.0, 0.0, 0.0, 0.0, 0.0, 0.0, 0.0, 0.0, 0.0, 0.0, 1.6154787607457628E9, 2021-03-11 17:06:00.745
113.0, 166470.640625, 187500.0, -37199.94140625, -7702.65673828125, -187500.015625, -8972.6376953125, 1811.4300537109375, 3509.178955078125, 0.02200000174343586, 0.9580000638961792, 0.2160000056028366, 192.0, 0.0, 176.0, 29.0, 240.0, 6.0, 192.0, 0.0, 0.0, 0.0, 1.6154787607457664E9, 2021-03-11 17:06:00.745
114.0, 166211.03125, 187500.0, -37220.59375, -7718.88427734375, -187500.015625, -9255.5439453125, 1488.804931640625, 3214.3818359375, 0.02200000174343586, 0.9580000638961792, 0.2160000056028366, 192.0, 0.0, 0.0, 0.0, 0.0, 0.0, 0.0, 0.0, 0.0, 0.0, 1.6154787607457733E9, 2021-03-11 17:06:00.745
115.0, 166036.375, 187500.0, -37487.60546875, -7878.4755859375, -187500.015625, -9413.4814453125, 1305.7218017578125, 3036.238525390625, 0.02200000174343586, 0.9580000638961792, 0.2160000056028366, 192.0, 0.0, 0.0, 0.0, 0.0, 0.0, 0.0, 0.0, 0.0, 0.0, 1.615478760745779E9, 2021-03-11 17:06:00.745
116.0, 166255.734375, 187500.0, -37605.2890625, -7930.0185546875, -187500.015625, -9132.564453125, 1605.7716064453125, 3301.218505859375, 0.02200000174343586, 0.9580000638961792, 0.2160000056028366, 192.0, 0.0, 0.0, 0.0, 0.0, 0.0, 0.0, 0.0, 0.0, 0.0, 1.6154787607457824E9, 2021-03-11 17:06:00.745
117.0, 166512.375, 187500.0, -37428.8671875, -7827.4462890625, -187500.015625, -8867.9873046875, 1875.3336181640625, 3565.8408203125, 0.02200000174343586, 0.9580000638961792, 0.2160000056028366, 192.0, 0.0, 0.0, 0.0, 0.0, 0.0, 0.0, 0.0, 0.0, 0.0, 1.6154787607457871E9, 2021-03-11 17:06:00.745
118.0, 166462.4375, 187500.0, -37237.01953125, -7707.328125, -187500.015625, -8952.4541015625, 1791.1123046875, 3500.104248046875, 0.02200000174343586, 0.9580000638961792, 0.2160000056028366, 192.0, 0.0, 0.0, 0.0, 0.0, 0.0, 0.0, 0.0, 0.0, 0.0, 1.61547876074579E9, 2021-03-11 17:06:00.745
119.0, 166200.390625, 187500.0, -37261.875, -7729.322265625, -187500.015625, -9267.345703125, 1486.301513671875, 3202.625, 0.02200000174343586, 0.9580000638961792, 0.2160000056028366, 192.0, 0.0, 0.0, 0.0, 0.0, 0.0, 0.0, 0.0, 0.0, 0.0, 1.6154787607457929E9, 2021-03-11 17:06:00.745
120.0, 166051.390625, 187500.0, -37518.609375, -7882.4990234375, -187500.015625, -9413.6826171875, 1332.1192626953125, 3053.896484375, 0.02200000174343586, 0.9580000638961792, 0.2160000056028366, 192.0, 0.0, 0.0, 0.0, 0.0, 0.0, 0.0, 0.0, 0.0, 0.0, 1.6154787607457955E9, 2021-03-11 17:06:00.745
121.0, 166252.734375, 187500.0, -37633.5625, -7945.68701171875, -187500.015625, -9133.8837890625, 1675.66552734375, 3327.34765625, 0.02200000174343586, 0.9580000638961792, 0.2160000056028366, 192.0, 0.0, 0.0, 0.0, 0.0, 0.0, 0.0, 0.0, 0.0, 0.0, 1.615478760745798E9, 2021-03-11 17:06:00.745
122.0, 166512.84375, 187500.0, -37405.75390625, -7821.7021484375, -187500.015625, -8861.3486328125, 1917.802001953125, 3594.048583984375, 0.02200000174343586, 0.9580000638961792, 0.2160000056028366, 192.0, 0.0, 0.0, 0.0, 0.0, 0.0, 0.0, 0.0, 0.0, 0.0, 1.6154787607458007E9, 2021-03-11 17:06:00.745
123.0, 166471.109375, 187500.0, -37192.453125, -7678.5615234375, -187500.015625, -8950.107421875, 1792.252197265625, 3524.73583984375, 0.01600000075995922, 0.9640000462532043, 0.20800000429153442, 192.0, 0.0, 128.0, 30.0, 32.0, 6.0, 128.0, 0.0, 0.0, 0.0, 1.6154787607458036E9, 2021-03-11 17:06:00.745
124.0, 166192.671875, 187500.0, -37253.8515625, -7716.89501953125, -187500.015625, -9282.7685546875, 1475.5279541015625, 3210.962158203125, 0.01600000075995922, 0.9640000462532043, 0.20800000429153442, 192.0, 0.0, 0.0, 0.0, 0.0, 0.0, 0.0, 0.0, 0.0, 0.0, 1.615478760745807E9, 2021-03-11 17:06:00.745
125.0, 166013.265625, 187500.0, -37540.3125, -7895.8876953125, -187500.015625, -9438.4931640625, 1319.84814453125, 3048.218994140625, 0.01600000075995922, 0.9640000462532043, 0.20800000429153442, 192.0, 0.0, 0.0, 0.0, 0.0, 0.0, 0.0, 0.0, 0.0, 0.0, 1.6154787607458117E9, 2021-03-11 17:06:00.745
126.0, 166246.640625, 187500.0, -37642.28125, -7940.56884765625, -187500.015625, -9135.7392578125, 1627.1845703125, 3334.276611328125, 0.01600000075995922, 0.9640000462532043, 0.20800000429153442, 192.0, 0.0, 0.0, 0.0, 0.0, 0.0, 0.0, 0.0, 0.0, 0.0, 1.6154787607458143E9, 2021-03-11 17:06:00.745
127.0, 166512.875, 187500.0, -37445.13671875, -7822.14892578125, -187500.015625, -8866.7353515625, 1917.399658203125, 3604.352783203125, 0.01600000075995922, 0.9640000462532043, 0.20800000429153442, 192.0, 0.0, 0.0, 0.0, 0.0, 0.0, 0.0, 0.0, 0.0, 0.0, 1.615478760745818E9, 2021-03-11 17:06:00.745
128.0, 166452.3125, 187500.0, -37243.4140625, -7694.9453125, -187500.015625, -8959.96484375, 1830.58544921875, 3532.13427734375, 0.01600000075995922, 0.9640000462532043, 0.20800000429153442, 192.0, 0.0, 0.0, 0.0, 0.0, 0.0, 0.0, 0.0, 0.0, 0.0, 1.6154787607458208E9, 2021-03-11 17:06:00.745
129.0, 166164.890625, 187500.0, -37327.8828125, -7738.330078125, -187500.015625, -9295.2412109375, 1509.3685302734375, 3216.50537109375, 0.01600000075995922, 0.9640000462532043, 0.20800000429153442, 192.0, 0.0, 0.0, 0.0, 0.0, 0.0, 0.0, 0.0, 0.0, 0.0, 1.6154787607458236E9, 2021-03-11 17:06:00.745
130.0, 166011.5625, 187500.0, -37625.96484375, -7904.2919921875, -187500.015625, -9478.123046875, 1391.9771728515625, 3065.697998046875, 0.01600000075995922, 0.9640000462532043, 0.20800000429153442, 192.0, 0.0, 0.0, 0.0, 0.0, 0.0, 0.0, 0.0, 0.0, 0.0, 1.6154787607458265E9, 2021-03-11 17:06:00.745
131.0, 166235.421875, 187500.0, -37793.15625, -7973.35888671875, -187500.015625, -9245.59765625, 1702.15234375, 3328.04052734375, 0.01600000075995922, 0.9640000462532043, 0.20800000429153442, 192.0, 0.0, 0.0, 0.0, 0.0, 0.0, 0.0, 0.0, 0.0, 0.0, 1.6154787607458296E9, 2021-03-11 17:06:00.745
132.0, 166518.453125, 187500.0, -37552.984375, -7822.19384765625, -187500.015625, -8946.9560546875, 1935.5045166015625, 3595.009765625, 0.01600000075995922, 0.9640000462532043, 0.20800000429153442, 192.0, 0.0, 0.0, 0.0, 0.0, 0.0, 0.0, 0.0, 0.0, 0.0, 1.6154787607458327E9, 2021-03-11 17:06:00.745
133.0, 166474.578125, 187500.0, -37328.10546875, -7677.86865234375, -187500.015625, -9045.3486328125, 1838.4979248046875, 3521.003173828125, 0.018000001087784767, 0.9360000491142273, 0.20800000429153442, 192.0, 0.0, 144.0, 29.0, 64.0, 6.0, 128.0, 0.0, 0.0, 0.0, 1.6154787607458355E9, 2021-03-11 17:06:00.745
134.0, 166165.5, 187500.0, -37384.07421875, -7726.26025390625, -187500.015625, -9366.0732421875, 1487.6202392578125, 3204.949462890625, 0.018000001087784767, 0.9360000491142273, 0.20800000429153442, 192.0, 0.0, 0.0, 0.0, 0.0, 0.0, 0.0, 0.0, 0.0, 0.0, 1.6154787607458386E9, 2021-03-11 17:06:00.745
135.0, 165990.6875, 187500.0, -37675.1171875, -7902.66015625, -187500.015625, -9501.9501953125, 1346.0443115234375, 3062.300537109375, 0.018000001087784767, 0.9360000491142273, 0.20800000429153442, 192.0, 0.0, 0.0, 0.0, 0.0, 0.0, 0.0, 0.0, 0.0, 0.0, 1.615478760745842E9, 2021-03-11 17:06:00.745
136.0, 166251.234375, 187500.0, -37761.640625, -7939.16064453125, -187500.015625, -9203.6884765625, 1677.8336181640625, 3349.185302734375, 0.018000001087784767, 0.9360000491142273, 0.20800000429153442, 192.0, 0.0, 0.0, 0.0, 0.0, 0.0, 0.0, 0.0, 0.0, 0.0, 1.615478760745845E9, 2021-03-11 17:06:00.745
137.0, 166513.734375, 187500.0, -37533.5390625, -7806.61474609375, -187500.015625, -8949.458984375, 1948.625, 3604.531494140625, 0.018000001087784767, 0.9360000491142273, 0.20800000429153442, 192.0, 0.0, 0.0, 0.0, 0.0, 0.0, 0.0, 0.0, 0.0, 0.0, 1.615478760745848E9, 2021-03-11 17:06:00.745
138.0, 166452.046875, 187500.0, -37321.9140625, -7671.7216796875, -187500.015625, -9056.4345703125, 1827.6126708984375, 3522.43359375, 0.018000001087784767, 0.9360000491142273, 0.20800000429153442, 192.0, 0.0, 0.0, 0.0, 0.0, 0.0, 0.0, 0.0, 0.0, 0.0, 1.6154787607458508E9, 2021-03-11 17:06:00.745
139.0, 166160.609375, 187500.0, -37394.578125, -7720.64990234375, -187500.015625, -9379.8193359375, 1502.394775390625, 3210.0009765625, 0.018000001087784767, 0.9360000491142273, 0.20800000429153442, 192.0, 0.0, 0.0, 0.0, 0.0, 0.0, 0.0, 0.0, 0.0, 0.0, 1.615478760745854E9, 2021-03-11 17:06:00.745
140.0, 165988.390625, 187500.0, -37736.8046875, -7919.55810546875, -187500.015625, -9542.25, 1361.1988525390625, 3054.76806640625, 0.018000001087784767, 0.9360000491142273, 0.20800000429153442, 192.0, 0.0, 0.0, 0.0, 0.0, 0.0, 0.0, 0.0, 0.0, 0.0, 1.6154787607458565E9, 2021-03-11 17:06:00.745
141.0, 166266.484375, 187500.0, -37800.375, -7943.2060546875, -187500.015625, -9228.87890625, 1717.195068359375, 3361.389404296875, 0.018000001087784767, 0.9360000491142273, 0.20800000429153442, 192.0, 0.0, 0.0, 0.0, 0.0, 0.0, 0.0, 0.0, 0.0, 0.0, 1.6154787607458591E9, 2021-03-11 17:06:00.745
142.0, 166531.75, 187500.0, -37565.30078125, -7800.490234375, -187500.015625, -8960.76953125, 1998.2235107421875, 3611.326416015625, 0.018000001087784767, 0.9360000491142273, 0.20800000429153442, 192.0, 0.0, 0.0, 0.0, 0.0, 0.0, 0.0, 0.0, 0.0, 0.0, 1.615478760745862E9, 2021-03-11 17:06:00.745
143.0, 166445.34375, 187500.0, -37392.1640625, -7686.5185546875, -187500.015625, -9077.1552734375, 1799.3377685546875, 3482.98291015625, 0.02200000174343586, 0.9360000491142273, 0.20600001513957977, 192.0, 0.0, 176.0, 29.0, 64.0, 6.0, 112.0, 0.0, 0.0, 0.0, 1.615478760745865E9, 2021-03-11 17:06:00.745
144.0, 166130.625, 187500.0, -37449.921875, -7739.3359375, -187500.015625, -9403.244140625, 1462.67578125, 3169.656005859375, 0.02200000174343586, 0.9360000491142273, 0.20600001513957977, 192.0, 0.0, 0.0, 0.0, 0.0, 0.0, 0.0, 0.0, 0.0, 0.0, 1.6154787607458677E9, 2021-03-11 17:06:00.745
