%OpenBCI Raw EEG Data
%Number of channels = 8
%Sample Rate = 250 Hz
%Board = OpenBCI_GUI$BoardCytonSerial
Sample Index, EXG Channel 0, EXG Channel 1, EXG Channel 2, EXG Channel 3, EXG Channel 4, EXG Channel 5, EXG Channel 6, EXG Channel 7, Accel Channel 0, Accel Channel 1, Accel Channel 2, Other, Other, Other, Other, Other, Other, Other, Analog Channel 0, Analog Channel 1, Analog Channel 2, Timestamp, Timestamp (Formatted)
28.0, 187500.0, 187500.0, 827.8638916015625, -4850.931640625, 20728.560546875, 25737.318359375, 53621.67578125, 60167.09375, -0.026000000536441803, 0.9380000233650208, 0.22800001502037048, 192.0, 0.0, 0.0, 0.0, 0.0, 0.0, 0.0, 0.0, 0.0, 0.0, 1.615477274015912E9, 2021-03-11 16:41:14.015
29.0, 187500.0, 187500.0, 918.74609375, -3868.259765625, 20878.71875, 25855.89453125, 54138.6484375, 62341.42578125, -0.026000000536441803, 0.9380000233650208, 0.22800001502037048, 192.0, 0.0, 0.0, 0.0, 0.0, 0.0, 0.0, 0.0, 0.0, 0.0, 1.6154772740159423E9, 2021-03-11 16:41:14.015
30.0, 187500.0, 187500.0, 743.73193359375, -3608.5771484375, 20634.951171875, 25892.818359375, 53689.0, 63336.34765625, -0.026000000536441803, 0.9380000233650208, 0.22800001502037048, 192.0, 0.0, 0.0, 0.0, 0.0, 0.0, 0.0, 0.0, 0.0, 0.0, 1.6154772740159492E9, 2021-03-11 16:41:14.015
31.0, 187500.0, 187500.0, 562.3475341796875, -4513.7333984375, 20344.333984375, 25773.662109375, 52909.81640625, 61661.64453125, -0.026000000536441803, 0.9380000233650208, 0.22800001502037048, 192.0, 0.0, 0.0, 0.0, 0.0, 0.0, 0.0, 0.0, 0.0, 0.0, 1.6154772740159752E9, 2021-03-11 16:41:14.015
32.0, 187500.0, 187500.0, 640.3551025390625, -5204.31298828125, 20417.78125, 25679.828125, 52916.16796875, 59756.60546875, -0.026000000536441803, 0.9380000233650208, 0.22800001502037048, 192.0, 0.0, 0.0, 0.0, 0.0, 0.0, 0.0, 0.0, 0.0, 0.0, 1.615477274015998E9, 2021-03-11 16:41:14.015
33.0, 187500.0, 187500.0, 829.8978881835938, -4818.27587890625, 20698.005859375, 25739.91015625, 53653.9765625, 60218.30078125, -0.026000000536441803, 0.9380000233650208, 0.22800001502037048, 192.0, 0.0, 0.0, 0.0, 0.0, 0.0, 0.0, 0.0, 0.0, 0.0, 1.615477274016005E9, 2021-03-11 16:41:14.016
34.0, 187500.0, 187500.0, 924.982177734375, -3827.6689453125, 20850.623046875, 25862.0859375, 54178.97265625, 62419.81640625, -0.026000000536441803, 0.9380000233650208, 0.22800001502037048, 192.0, 0.0, 0.0, 0.0, 0.0, 0.0, 0.0, 0.0, 0.0, 0.0, 1.6154772740160246E9, 2021-03-11 16:41:14.016
35.0, 187500.0, 187500.0, 733.830078125, -3589.623046875, 20587.275390625, 25880.14453125, 53698.8125, 63386.9296875, 0.0020000000949949026, 0.9260000586509705, 0.2240000069141388, 192.0, 0.0, 16.0, 28.0, 240.0, 7.0, 0.0, 0.0, 0.0, 0.0, 1.615477274016102E9, 2021-03-11 16:41:14.016
36.0, 187500.0, 187500.0, 543.5050048828125, -4531.18994140625, 20288.69921875, 25747.576171875, 52868.19921875, 61650.55859375, 0.0020000000949949026, 0.9260000586509705, 0.2240000069141388, 192.0, 0.0, 0.0, 0.0, 0.0, 0.0, 0.0, 0.0, 0.0, 0.0, 1.6154772740161057E9, 2021-03-11 16:41:14.016
37.0, 187500.0, 187500.0, 631.2579345703125, -5218.05908203125, 20371.111328125, 25660.5625, 52891.625, 59736.890625, 0.0020000000949949026, 0.9260000586509705, 0.2240000069141388, 192.0, 0.0, 0.0, 0.0, 0.0, 0.0, 0.0, 0.0, 0.0, 0.0, 1.6154772740161085E9, 2021-03-11 16:41:14.016
38.0, 187500.0, 187500.0, 820.3090209960938, -4802.31689453125, 20644.09375, 25726.6328125, 53648.41015625, 60253.7734375, 0.0020000000949949026, 0.9260000586509705, 0.2240000069141388, 192.0, 0.0, 0.0, 0.0, 0.0, 0.0, 0.0, 0.0, 0.0, 0.0, 1.6154772740161111E9, 2021-03-11 16:41:14.016
39.0, 187500.0, 187500.0, 905.1338500976562, -3815.822509765625, 20775.521484375, 25844.314453125, 54159.68359375, 62462.328125, 0.0020000000949949026, 0.9260000586509705, 0.2240000069141388, 192.0, 0.0, 0.0, 0.0, 0.0, 0.0, 0.0, 0.0, 0.0, 0.0, 1.6154772740161192E9, 2021-03-11 16:41:14.016
40.0, 187500.0, 187500.0, 712.595947265625, -3591.075927734375, 20494.716796875, 25864.208984375, 53671.296875, 63391.625, 0.0020000000949949026, 0.9260000586509705, 0.2240000069141388, 192.0, 0.0, 0.0, 0.0, 0.0, 0.0, 0.0, 0.0, 0.0, 0.0, 1.6154772740161269E9, 2021-03-11 16:41:14.016
41.0, 187500.0, 187500.0, 523.8801879882812, -4533.44775390625, 20188.453125, 25728.7578125, 52860.7578125, 61635.671875, 0.0020000000949949026, 0.9260000586509705, 0.2240000069141388, 192.0, 0.0, 0.0, 0.0, 0.0, 0.0, 0.0, 0.0, 0.0, 0.0, 1.6154772740161357E9, 2021-03-11 16:41:14.016
42.0, 187500.0, 187500.0, 611.7001953125, -5211.66650390625, 20250.658203125, 25647.28515625, 52916.5, 59754.75, 0.0020000000949949026, 0.9260000586509705, 0.2240000069141388, 192.0, 0.0, 0.0, 0.0, 0.0, 0.0, 0.0, 0.0, 0.0, 0.0, 1.615477274016143E9, 2021-03-11 16:41:14.016
43.0, 187500.0, 187500.0, 805.3556518554688, -4797.28759765625, 20478.64453125, 25726.767578125, 53690.609375, 60290.0078125, 0.0020000000949949026, 0.9260000586509705, 0.2240000069141388, 192.0, 0.0, 0.0, 0.0, 0.0, 0.0, 0.0, 0.0, 0.0, 0.0, 1.6154772740161524E9, 2021-03-11 16:41:14.016
44.0, 187500.0, 187500.0, 880.2340087890625, -3816.649658203125, 20527.974609375, 25840.783203125, 54186.08203125, 62483.33984375, 0.0020000000949949026, 0.9260000586509705, 0.2240000069141388, 192.0, 0.0, 0.0, 0.0, 0.0, 0.0, 0.0, 0.0, 0.0, 0.0, 1.6154772740161629E9, 2021-03-11 16:41:14.016
45.0, 187500.0, 187500.0, 679.5823974609375, -3599.79296875, 20124.951171875, 25858.419921875, 53687.16796875, 63372.8046875, 0.026000000536441803, 0.9440000653266907, 0.20800000429153442, 192.0, 0.0, 208.0, 29.0, 128.0, 6.0, 128.0, 0.0, 0.0, 0.0, 1.6154772740161676E9, 2021-03-11 16:41:14.016
46.0, 187500.0, 187500.0, 489.6820068359375, -4539.169921875, 19635.24609375, 25721.939453125, 52872.2890625, 61591.19140625, 0.026000000536441803, 0.9440000653266907, 0.20800000429153442, 192.0, 0.0, 0.0, 0.0, 0.0, 0.0, 0.0, 0.0, 0.0, 0.0, 1.6154772740161731E9, 2021-03-11 16:41:14.016
47.0, 187500.0, 187500.0, 575.1103515625, -5206.30224609375, 19547.78515625, 25631.01171875, 52900.85546875, 59705.93359375, 0.026000000536441803, 0.9440000653266907, 0.20800000429153442, 192.0, 0.0, 0.0, 0.0, 0.0, 0.0, 0.0, 0.0, 0.0, 0.0, 1.61547727401618E9, 2021-03-11 16:41:14.016
48.0, 187500.0, 187500.0, 747.1517333984375, -4770.3984375, 19725.32421875, 25687.5625, 53616.984375, 60278.2265625, 0.026000000536441803, 0.9440000653266907, 0.20800000429153442, 192.0, 0.0, 0.0, 0.0, 0.0, 0.0, 0.0, 0.0, 0.0, 0.0, 1.6154772740161874E9, 2021-03-11 16:41:14.016
49.0, 187500.0, 187500.0, 821.2701416015625, -3776.371826171875, 19814.888671875, 25805.892578125, 54103.69140625, 62501.46484375, 0.026000000536441803, 0.9440000653266907, 0.20800000429153442, 192.0, 0.0, 0.0, 0.0, 0.0, 0.0, 0.0, 0.0, 0.0, 0.0, 1.6154772740161953E9, 2021-03-11 16:41:14.016
50.0, 187500.0, 187500.0, 646.1442260742188, -3567.31591796875, 19530.86328125, 25862.263671875, 53681.87109375, 63370.92578125, 0.026000000536441803, 0.9440000653266907, 0.20800000429153442, 192.0, 0.0, 0.0, 0.0, 0.0, 0.0, 0.0, 0.0, 0.0, 0.0, 1.615477274016202E9, 2021-03-11 16:41:14.016
51.0, 187500.0, 187500.0, 472.314697265625, -4493.05810546875, 19232.37890625, 25740.55859375, 52938.49609375, 61587.4375, 0.026000000536441803, 0.9440000653266907, 0.20800000429153442, 192.0, 0.0, 0.0, 0.0, 0.0, 0.0, 0.0, 0.0, 0.0, 0.0, 1.6154772740162091E9, 2021-03-11 16:41:14.016
52.0, 187500.0, 187500.0, 565.1414794921875, -5121.74560546875, 19326.345703125, 25661.166015625, 53000.453125, 59762.66015625, 0.026000000536441803, 0.9440000653266907, 0.20800000429153442, 192.0, 0.0, 0.0, 0.0, 0.0, 0.0, 0.0, 0.0, 0.0, 0.0, 1.615477274016216E9, 2021-03-11 16:41:14.016
53.0, 187500.0, 187500.0, 747.576416015625, -4670.1064453125, 19612.962890625, 25730.947265625, 53767.8359375, 60401.765625, 0.026000000536441803, 0.9440000653266907, 0.20800000429153442, 192.0, 0.0, 0.0, 0.0, 0.0, 0.0, 0.0, 0.0, 0.0, 0.0, 1.615477274016224E9, 2021-03-11 16:41:14.016
54.0, 187500.0, 187500.0, 822.4547729492188, -3714.971435546875, 19737.953125, 25841.07421875, 54243.61328125, 62584.078125, 0.026000000536441803, 0.9440000653266907, 0.20800000429153442, 192.0, 0.0, 0.0, 0.0, 0.0, 0.0, 0.0, 0.0, 0.0, 0.0, 1.6154772740162303E9, 2021-03-11 16:41:14.016
55.0, 187500.0, 187500.0, 629.7603759765625, -3524.93701171875, 19446.396484375, 25864.8125, 53736.96875, 63419.00390625, 0.036000002175569534, 0.9520000219345093, 0.19200000166893005, 192.0, 1.0, 32.0, 29.0, 192.0, 6.0, 0.0, 0.0, 0.0, 0.0, 1.6154772740162373E9, 2021-03-11 16:41:14.016
56.0, 187500.0, 187500.0, 456.51202392578125, -4457.2060546875, 19149.119140625, 25727.70703125, 52964.53515625, 61637.03515625, 0.036000002175569534, 0.9520000219345093, 0.19200000166893005, 192.0, 0.0, 0.0, 0.0, 0.0, 0.0, 0.0, 0.0, 0.0, 0.0, 1.6154772740162566E9, 2021-03-11 16:41:14.016
57.0, 187500.0, 187500.0, 553.8314819335938, -5104.33349609375, 19246.080078125, 25640.310546875, 53038.65234375, 59817.6015625, 0.036000002175569534, 0.9520000219345093, 0.19200000166893005, 192.0, 0.0, 0.0, 0.0, 0.0, 0.0, 0.0, 0.0, 0.0, 0.0, 1.615477274016265E9, 2021-03-11 16:41:14.016
58.0, 187500.0, 187500.0, 747.1964111328125, -4660.919921875, 19537.234375, 25712.462890625, 53801.69921875, 60470.67578125, 0.036000002175569534, 0.9520000219345093, 0.19200000166893005, 192.0, 0.0, 0.0, 0.0, 0.0, 0.0, 0.0, 0.0, 0.0, 0.0, 1.6154772740162723E9, 2021-03-11 16:41:14.016
59.0, 187500.0, 187500.0, 821.3594970703125, -3693.55859375, 19654.625, 25825.048828125, 54258.9453125, 62688.32421875, 0.036000002175569534, 0.9520000219345093, 0.19200000166893005, 192.0, 0.0, 0.0, 0.0, 0.0, 0.0, 0.0, 0.0, 0.0, 0.0, 1.6154772740162816E9, 2021-03-11 16:41:14.016
60.0, 187500.0, 187500.0, 622.5631103515625, -3541.72314453125, 19358.130859375, 25839.53125, 53723.5546875, 63464.109375, 0.036000002175569534, 0.9520000219345093, 0.19200000166893005, 192.0, 0.0, 0.0, 0.0, 0.0, 0.0, 0.0, 0.0, 0.0, 0.0, 1.6154772740162911E9, 2021-03-11 16:41:14.016
61.0, 187500.0, 187500.0, 460.6918029785156, -4474.796875, 19082.5546875, 25709.376953125, 52959.05859375, 61656.79296875, 0.036000002175569534, 0.9520000219345093, 0.19200000166893005, 192.0, 0.0, 0.0, 0.0, 0.0, 0.0, 0.0, 0.0, 0.0, 0.0, 1.615477274016301E9, 2021-03-11 16:41:14.016
62.0, 187500.0, 187500.0, 567.5107421875, -5079.43359375, 19198.470703125, 25638.5234375, 53056.01953125, 59906.13671875, 0.036000002175569534, 0.9520000219345093, 0.19200000166893005, 192.0, 0.0, 0.0, 0.0, 0.0, 0.0, 0.0, 0.0, 0.0, 0.0, 1.6154772740163069E9, 2021-03-11 16:41:14.016
63.0, 187500.0, 187500.0, 760.0487060546875, -4624.01708984375, 19486.205078125, 25717.939453125, 53820.921875, 60604.4296875, 0.036000002175569534, 0.9520000219345093, 0.19200000166893005, 192.0, 0.0, 0.0, 0.0, 0.0, 0.0, 0.0, 0.0, 0.0, 0.0, 1.6154772740163147E9, 2021-03-11 16:41:14.016
64.0, 187500.0, 187500.0, 828.1991577148438, -3683.947265625, 19589.6484375, 25828.69140625, 54257.5390625, 62789.625, 0.036000002175569534, 0.9520000219345093, 0.19200000166893005, 192.0, 0.0, 0.0, 0.0, 0.0, 0.0, 0.0, 0.0, 0.0, 0.0, 1.6154772740163245E9, 2021-03-11 16:41:14.016
65.0, 187500.0, 187500.0, 628.1510620117188, -3547.691162109375, 19282.982421875, 25844.47265625, 53710.703125, 63528.8203125, 0.036000002175569534, 0.9440000653266907, 0.1860000044107437, 192.0, 1.0, 32.0, 29.0, 128.0, 5.0, 208.0, 0.0, 0.0, 0.0, 1.6154772740163329E9, 2021-03-11 16:41:14.016
66.0, 187500.0, 187500.0, 474.7063293457031, -4503.787109375, 19013.935546875, 25715.970703125, 52950.8125, 61673.37890625, 0.036000002175569534, 0.9440000653266907, 0.1860000044107437, 192.0, 0.0, 0.0, 0.0, 0.0, 0.0, 0.0, 0.0, 0.0, 0.0, 1.6154772740163395E9, 2021-03-11 16:41:14.016
67.0, 187500.0, 187500.0, 574.6409912109375, -5094.72216796875, 19121.111328125, 25634.56640625, 53056.578125, 59937.453125, 0.036000002175569534, 0.9440000653266907, 0.1860000044107437, 192.0, 0.0, 0.0, 0.0, 0.0, 0.0, 0.0, 0.0, 0.0, 0.0, 1.615477274016348E9, 2021-03-11 16:41:14.016
68.0, 187500.0, 187500.0, 766.6424560546875, -4627.36962890625, 19411.974609375, 25707.857421875, 53831.515625, 60670.96875, 0.036000002175569534, 0.9440000653266907, 0.1860000044107437, 192.0, 0.0, 0.0, 0.0, 0.0, 0.0, 0.0, 0.0, 0.0, 0.0, 1.6154772740163572E9, 2021-03-11 16:41:14.016
69.0, 187500.0, 187500.0, 828.3779907226562, -3693.111572265625, 19515.060546875, 25814.564453125, 54259.10546875, 62842.95703125, 0.036000002175569534, 0.9440000653266907, 0.1860000044107437, 192.0, 0.0, 0.0, 0.0, 0.0, 0.0, 0.0, 0.0, 0.0, 0.0, 1.6154772740163639E9, 2021-03-11 16:41:14.016
70.0, 187500.0, 187500.0, 621.1326293945312, -3574.781494140625, 19208.283203125, 25830.009765625, 53694.2734375, 63532.4609375, 0.036000002175569534, 0.9440000653266907, 0.1860000044107437, 192.0, 0.0, 0.0, 0.0, 0.0, 0.0, 0.0, 0.0, 0.0, 0.0, 1.61547727401637E9, 2021-03-11 16:41:14.016
71.0, 187500.0, 187500.0, 472.5382080078125, -4506.04443359375, 18947.662109375, 25699.990234375, 52959.9296875, 61706.4375, 0.036000002175569534, 0.9440000653266907, 0.1860000044107437, 192.0, 0.0, 0.0, 0.0, 0.0, 0.0, 0.0, 0.0, 0.0, 0.0, 1.6154772740163743E9, 2021-03-11 16:41:14.016
72.0, 187500.0, 187500.0, 585.1463012695312, -5085.96044921875, 19080.208984375, 25629.716796875, 53104.5703125, 60016.77734375, 0.036000002175569534, 0.9440000653266907, 0.1860000044107437, 192.0, 0.0, 0.0, 0.0, 0.0, 0.0, 0.0, 0.0, 0.0, 0.0, 1.6154772740163777E9, 2021-03-11 16:41:14.016
73.0, 187500.0, 187500.0, 774.4432373046875, -4612.19287109375, 19369.462890625, 25704.86328125, 53869.734375, 60785.23046875, 0.036000002175569534, 0.9440000653266907, 0.1860000044107437, 192.0, 0.0, 0.0, 0.0, 0.0, 0.0, 0.0, 0.0, 0.0, 0.0, 1.6154772740163803E9, 2021-03-11 16:41:14.016
74.0, 187500.0, 187500.0, 832.8706665039062, -3711.328125, 19464.904296875, 25818.9453125, 54257.13671875, 62917.0078125, 0.036000002175569534, 0.9440000653266907, 0.1860000044107437, 192.0, 0.0, 0.0, 0.0, 0.0, 0.0, 0.0, 0.0, 0.0, 0.0, 1.6154772740163832E9, 2021-03-11 16:41:14.016
75.0, 187500.0, 187500.0, 622.6078491210938, -3618.09912109375, 19147.80078125, 25831.1953125, 53677.19921875, 63543.01171875, 0.02800000086426735, 0.9420000314712524, 0.17600001394748688, 192.0, 0.0, 224.0, 29.0, 112.0, 5.0, 128.0, 0.0, 0.0, 0.0, 1.615477274016386E9, 2021-03-11 16:41:14.016
76.0, 187500.0, 187500.0, 473.1864013671875, -4533.134765625, 18881.009765625, 25702.515625, 52954.6328125, 61714.484375, 0.02800000086426735, 0.9420000314712524, 0.17600001394748688, 192.0, 0.0, 0.0, 0.0, 0.0, 0.0, 0.0, 0.0, 0.0, 0.0, 1.6154772740163891E9, 2021-03-11 16:41:14.016
77.0, 187500.0, 187500.0, 579.7818603515625, -5082.16064453125, 19003.654296875, 25631.951171875, 53090.62109375, 60082.0, 0.02800000086426735, 0.9420000314712524, 0.17600001394748688, 192.0, 0.0, 0.0, 0.0, 0.0, 0.0, 0.0, 0.0, 0.0, 0.0, 1.6154772740163922E9, 2021-03-11 16:41:14.016
78.0, 187500.0, 187500.0, 764.7872314453125, -4624.41943359375, 19290.314453125, 25700.99609375, 53827.35546875, 60845.1328125, 0.02800000086426735, 0.9420000314712524, 0.17600001394748688, 192.0, 0.0, 0.0, 0.0, 0.0, 0.0, 0.0, 0.0, 0.0, 0.0, 1.615477274016395E9, 2021-03-11 16:41:14.016
79.0, 187500.0, 187500.0, 818.0514526367188, -3726.3486328125, 19380.90625, 25800.685546875, 54199.4921875, 62961.28515625, 0.02800000086426735, 0.9420000314712524, 0.17600001394748688, 192.0, 0.0, 0.0, 0.0, 0.0, 0.0, 0.0, 0.0, 0.0, 0.0, 1.615477274016403E9, 2021-03-11 16:41:14.016
80.0, 187500.0, 187500.0, 611.3201904296875, -3628.559814453125, 19068.787109375, 25811.369140625, 53634.7734375, 63571.33203125, 0.02800000086426735, 0.9420000314712524, 0.17600001394748688, 192.0, 0.0, 0.0, 0.0, 0.0, 0.0, 0.0, 0.0, 0.0, 0.0, 1.6154772740164056E9, 2021-03-11 16:41:14.016
81.0, 187500.0, 187500.0, 473.4099426269531, -4530.27392578125, 18818.447265625, 25684.41015625, 52937.84765625, 61752.32421875, 0.02800000086426735, 0.9420000314712524, 0.17600001394748688, 192.0, 0.0, 0.0, 0.0, 0.0, 0.0, 0.0, 0.0, 0.0, 0.0, 1.6154772740164084E9, 2021-03-11 16:41:14.016
82.0, 187500.0, 187500.0, 585.459228515625, -5073.93505859375, 18946.41015625, 25610.046875, 53096.58984375, 60143.1328125, 0.02800000086426735, 0.9420000314712524, 0.17600001394748688, 192.0, 0.0, 0.0, 0.0, 0.0, 0.0, 0.0, 0.0, 0.0, 0.0, 1.615477274016412E9, 2021-03-11 16:41:14.016
83.0, 187500.0, 187500.0, 773.1915283203125, -4599.78759765625, 19233.25, 25684.41015625, 53856.4609375, 60953.8984375, 0.02800000086426735, 0.9420000314712524, 0.17600001394748688, 192.0, 0.0, 0.0, 0.0, 0.0, 0.0, 0.0, 0.0, 0.0, 0.0, 1.6154772740164149E9, 2021-03-11 16:41:14.016
84.0, 187500.0, 187500.0, 830.9931030273438, -3718.1455078125, 19325.451171875, 25795.185546875, 54239.30078125, 63054.73828125, 0.02800000086426735, 0.9420000314712524, 0.17600001394748688, 192.0, 0.0, 0.0, 0.0, 0.0, 0.0, 0.0, 0.0, 0.0, 0.0, 1.6154772740164175E9, 2021-03-11 16:41:14.016
85.0, 187500.0, 187500.0, 626.4075927734375, -3628.783203125, 19012.908203125, 25822.365234375, 53651.24609375, 63633.2890625, 0.018000001087784767, 0.9480000734329224, 0.17000000178813934, 192.0, 0.0, 144.0, 29.0, 160.0, 5.0, 80.0, 0.0, 0.0, 0.0, 1.61547727401642E9, 2021-03-11 16:41:14.016
86.0, 187500.0, 187500.0, 486.19512939453125, -4532.173828125, 18769.2734375, 25702.091796875, 52941.51171875, 61801.296875, 0.018000001087784767, 0.9480000734329224, 0.17000000178813934, 192.0, 0.0, 0.0, 0.0, 0.0, 0.0, 0.0, 0.0, 0.0, 0.0, 1.6154772740164232E9, 2021-03-11 16:41:14.016
87.0, 187500.0, 187500.0, 610.448486328125, -5062.40185546875, 18911.67578125, 25635.103515625, 53103.78515625, 60219.80078125, 0.018000001087784767, 0.9480000734329224, 0.17000000178813934, 192.0, 0.0, 0.0, 0.0, 0.0, 0.0, 0.0, 0.0, 0.0, 0.0, 1.615477274016426E9, 2021-03-11 16:41:14.016
88.0, 187500.0, 187500.0, 799.49951171875, -4583.62744140625, 19190.40234375, 25711.2109375, 53865.265625, 61052.58203125, 0.018000001087784767, 0.9480000734329224, 0.17000000178813934, 192.0, 0.0, 0.0, 0.0, 0.0, 0.0, 0.0, 0.0, 0.0, 0.0, 1.6154772740164297E9, 2021-03-11 16:41:14.016
89.0, 187500.0, 187500.0, 854.6636352539062, -3699.75, 19267.873046875, 25822.5, 54216.58984375, 63164.88671875, 0.018000001087784767, 0.9480000734329224, 0.17000000178813934, 192.0, 0.0, 0.0, 0.0, 0.0, 0.0, 0.0, 0.0, 0.0, 0.0, 1.6154772740164328E9, 2021-03-11 16:41:14.016
90.0, 187500.0, 187500.0, 648.8934936523438, -3632.962890625, 18939.728515625, 25842.83984375, 53604.890625, 63693.9765625, 0.018000001087784767, 0.9480000734329224, 0.17000000178813934, 192.0, 0.0, 0.0, 0.0, 0.0, 0.0, 0.0, 0.0, 0.0, 0.0, 1.6154772740164359E9, 2021-03-11 16:41:14.016
91.0, 187500.0, 187500.0, 520.3262329101562, -4525.24462890625, 18693.724609375, 25721.8046875, 52918.35546875, 61848.7734375, 0.018000001087784767, 0.9480000734329224, 0.17000000178813934, 192.0, 0.0, 0.0, 0.0, 0.0, 0.0, 0.0, 0.0, 0.0, 0.0, 1.61547727401644E9, 2021-03-11 16:41:14.016
92.0, 187500.0, 187500.0, 633.4260864257812, -5032.36083984375, 18818.669921875, 25649.02734375, 53089.79296875, 60308.4453125, 0.018000001087784767, 0.9480000734329224, 0.17000000178813934, 192.0, 0.0, 0.0, 0.0, 0.0, 0.0, 0.0, 0.0, 0.0, 0.0, 1.615477274016443E9, 2021-03-11 16:41:14.016
93.0, 187500.0, 187500.0, 820.040771484375, -4552.82666015625, 19095.49609375, 25721.8046875, 53838.33203125, 61158.90625, 0.018000001087784767, 0.9480000734329224, 0.17000000178813934, 192.0, 0.0, 0.0, 0.0, 0.0, 0.0, 0.0, 0.0, 0.0, 0.0, 1.6154772740164464E9, 2021-03-11 16:41:14.016
94.0, 187500.0, 187500.0, 866.8005981445312, -3687.031982421875, 19161.591796875, 25829.630859375, 54186.4609375, 63239.07421875, 0.018000001087784767, 0.9480000734329224, 0.17000000178813934, 192.0, 0.0, 0.0, 0.0, 0.0, 0.0, 0.0, 0.0, 0.0, 0.0, 1.6154772740164492E9, 2021-03-11 16:41:14.016
95.0, 187500.0, 187500.0, 660.4940185546875, -3616.445068359375, 18834.427734375, 25851.4453125, 53581.3984375, 63756.3828125, 0.020000001415610313, 0.968000054359436, 0.17400000989437103, 192.0, 0.0, 160.0, 30.0, 64.0, 5.0, 112.0, 0.0, 0.0, 0.0, 1.615477274016459E9, 2021-03-11 16:41:14.016
96.0, 187500.0, 187500.0, 533.2232055664062, -4512.86181640625, 18593.298828125, 25723.080078125, 52896.4296875, 61900.78515625, 0.020000001415610313, 0.968000054359436, 0.17400000989437103, 192.0, 0.0, 0.0, 0.0, 0.0, 0.0, 0.0, 0.0, 0.0, 0.0, 1.615477274016464E9, 2021-03-11 16:41:14.016
97.0, 187500.0, 187500.0, 648.6475830078125, -5019.3076171875, 18732.68359375, 25660.3828125, 53089.83984375, 60378.02734375, 0.020000001415610313, 0.968000054359436, 0.17400000989437103, 192.0, 0.0, 0.0, 0.0, 0.0, 0.0, 0.0, 0.0, 0.0, 0.0, 1.615477274016467E9, 2021-03-11 16:41:14.016
98.0, 187500.0, 187500.0, 828.333251953125, -4540.578125, 19011.208984375, 25733.763671875, 53854.91796875, 61256.5390625, 0.020000001415610313, 0.968000054359436, 0.17400000989437103, 192.0, 0.0, 0.0, 0.0, 0.0, 0.0, 0.0, 0.0, 0.0, 0.0, 1.6154772740164697E9, 2021-03-11 16:41:14.016
99.0, 187500.0, 187500.0, 871.3380126953125, -3673.039794921875, 19077.50390625, 25842.03515625, 54208.4765625, 63348.640625, 0.020000001415610313, 0.968000054359436, 0.17400000989437103, 192.0, 0.0, 0.0, 0.0, 0.0, 0.0, 0.0, 0.0, 0.0, 0.0, 1.6154772740164728E9, 2021-03-11 16:41:14.016
100.0, 187500.0, 187500.0, 668.2724609375, -3622.949462890625, 18764.466796875, 25858.0625, 53623.01953125, 63818.05078125, 0.020000001415610313, 0.968000054359436, 0.17400000989437103, 192.0, 0.0, 0.0, 0.0, 0.0, 0.0, 0.0, 0.0, 0.0, 0.0, 1.6154772740164757E9, 2021-03-11 16:41:14.016
101.0, 187500.0, 187500.0, 548.7576293945312, -4516.52734375, 18550.001953125, 25727.3046875, 52974.5703125, 61947.87890625, 0.020000001415610313, 0.968000054359436, 0.17400000989437103, 192.0, 0.0, 0.0, 0.0, 0.0, 0.0, 0.0, 0.0, 0.0, 0.0, 1.6154772740164783E9, 2021-03-11 16:41:14.016
102.0, 187500.0, 187500.0, 665.0537719726562, -5007.99755859375, 18704.654296875, 25661.388671875, 53185.2578125, 60464.5078125, 0.020000001415610313, 0.968000054359436, 0.17400000989437103, 192.0, 0.0, 0.0, 0.0, 0.0, 0.0, 0.0, 0.0, 0.0, 0.0, 1.6154772740164933E9, 2021-03-11 16:41:14.016
103.0, 187500.0, 187500.0, 847.0863647460938, -4519.25439453125, 19006.849609375, 25741.341796875, 53938.04296875, 61387.85546875, 0.020000001415610313, 0.968000054359436, 0.17400000989437103, 192.0, 0.0, 0.0, 0.0, 0.0, 0.0, 0.0, 0.0, 0.0, 0.0, 1.6154772740164964E9, 2021-03-11 16:41:14.016
104.0, 187500.0, 187500.0, 892.0133666992188, -3678.091064453125, 19090.9375, 25848.025390625, 54252.0859375, 63457.47265625, 0.020000001415610313, 0.968000054359436, 0.17400000989437103, 192.0, 0.0, 0.0, 0.0, 0.0, 0.0, 0.0, 0.0, 0.0, 0.0, 1.6154772740165007E9, 2021-03-11 16:41:14.016
105.0, 187500.0, 187500.0, 677.66015625, -3651.1796875, 18789.859375, 25857.4140625, 53599.90625, 63896.1484375, 0.020000001415610313, 0.940000057220459, 0.18200001120567322, 192.0, 0.0, 160.0, 29.0, 96.0, 5.0, 176.0, 0.0, 0.0, 0.0, 1.615477274016504E9, 2021-03-11 16:41:14.016
106.0, 187500.0, 187500.0, 555.41845703125, -4552.513671875, 18599.421875, 25727.28125, 52919.609375, 62018.04296875, 0.020000001415610313, 0.940000057220459, 0.18200001120567322, 192.0, 0.0, 0.0, 0.0, 0.0, 0.0, 0.0, 0.0, 0.0, 0.0, 1.6154772740165093E9, 2021-03-11 16:41:14.016
107.0, 187500.0, 187500.0, 681.3482055664062, -5034.81982421875, 18828.169921875, 25668.048828125, 53137.8515625, 60569.8515625, 0.020000001415610313, 0.940000057220459, 0.18200001120567322, 192.0, 0.0, 0.0, 0.0, 0.0, 0.0, 0.0, 0.0, 0.0, 0.0, 1.615477274016512E9, 2021-03-11 16:41:14.016
108.0, 187500.0, 187500.0, 864.6101684570312, -4529.111328125, 19251.01953125, 25745.609375, 53898.12109375, 61541.59375, 0.020000001415610313, 0.940000057220459, 0.18200001120567322, 192.0, 0.0, 0.0, 0.0, 0.0, 0.0, 0.0, 0.0, 0.0, 0.0, 1.6154772740165155E9, 2021-03-11 16:41:14.016
109.0, 187500.0, 187500.0, 906.9443359375, -3701.27001953125, 19402.9453125, 25858.12890625, 54199.3125, 63593.32421875, 0.020000001415610313, 0.940000057220459, 0.18200001120567322, 192.0, 0.0, 0.0, 0.0, 0.0, 0.0, 0.0, 0.0, 0.0, 0.0, 1.6154772740165186E9, 2021-03-11 16:41:14.016
110.0, 187500.0, 187500.0, 690.5794677734375, -3688.417724609375, 19128.01953125, 25875.02734375, 53531.30859375, 63989.84765625, 0.020000001415610313, 0.940000057220459, 0.18200001120567322, 192.0, 0.0, 0.0, 0.0, 0.0, 0.0, 0.0, 0.0, 0.0, 0.0, 1.6154772740165222E9, 2021-03-11 16:41:14.016
111.0, 187500.0, 187500.0, 567.6001586914062, -4612.0810546875, 19006.3359375, 25745.833984375, 52856.64453125, 62058.9453125, 0.020000001415610313, 0.940000057220459, 0.18200001120567322, 192.0, 0.0, 0.0, 0.0, 0.0, 0.0, 0.0, 0.0, 0.0, 0.0, 1.615477274016525E9, 2021-03-11 16:41:14.016
112.0, 187500.0, 187500.0, 685.259765625, -5079.74658203125, 19175.11328125, 25684.27734375, 53106.08984375, 60629.796875, 0.020000001415610313, 0.940000057220459, 0.18200001120567322, 192.0, 0.0, 0.0, 0.0, 0.0, 0.0, 0.0, 0.0, 0.0, 0.0, 1.615477274016529E9, 2021-03-11 16:41:14.016
113.0, 187500.0, 187500.0, 874.3555297851562, -4563.890625, 19460.09765625, 25771.626953125, 53914.39453125, 61617.23046875, 0.020000001415610313, 0.940000057220459, 0.18200001120567322, 192.0, 0.0, 0.0, 0.0, 0.0, 0.0, 0.0, 0.0, 0.0, 0.0, 1.6154772740165331E9, 2021-03-11 16:41:14.016
114.0, 187500.0, 187500.0, 908.44189453125, -3711.529296875, 19521.767578125, 25882.89453125, 54234.515625, 63690.98046875, 0.020000001415610313, 0.940000057220459, 0.18200001120567322, 192.0, 0.0, 0.0, 0.0, 0.0, 0.0, 0.0, 0.0, 0.0, 0.0, 1.6154772740165374E9, 2021-03-11 16:41:14.016
115.0, 187500.0, 187500.0, 682.8010864257812, -3714.5693359375, 19178.51171875, 25889.66796875, 53555.984375, 64043.3125, 0.020000001415610313, 0.9220000505447388, 0.18400001525878906, 192.0, 0.0, 160.0, 28.0, 208.0, 5.0, 192.0, 0.0, 0.0, 0.0, 1.6154772740165408E9, 2021-03-11 16:41:14.016
116.0, 187500.0, 187500.0, 560.02294921875, -4654.95166015625, 18948.53515625, 25746.392578125, 52889.34375, 62058.23046875, 0.020000001415610313, 0.9220000505447388, 0.18400001525878906, 192.0, 0.0, 0.0, 0.0, 0.0, 0.0, 0.0, 0.0, 0.0, 0.0, 1.6154772740165443E9, 2021-03-11 16:41:14.016
117.0, 187500.0, 187500.0, 679.6271362304688, -5109.58642578125, 19081.125, 25684.8359375, 53132.8671875, 60629.1953125, 0.020000001415610313, 0.9220000505447388, 0.18400001525878906, 192.0, 0.0, 0.0, 0.0, 0.0, 0.0, 0.0, 0.0, 0.0, 0.0, 1.6154772740165474E9, 2021-03-11 16:41:14.016
118.0, 187500.0, 187500.0, 850.7073364257812, -4558.01220703125, 19323.484375, 25767.3359375, 53866.7421875, 61660.28125, 0.020000001415610313, 0.9220000505447388, 0.18400001525878906, 192.0, 0.0, 0.0, 0.0, 0.0, 0.0, 0.0, 0.0, 0.0, 0.0, 1.6154772740165503E9, 2021-03-11 16:41:14.016
119.0, 187500.0, 187500.0, 871.6286010742188, -3704.980224609375, 19293.7578125, 25875.8984375, 54143.74609375, 63717.1328125, 0.020000001415610313, 0.9220000505447388, 0.18400001525878906, 192.0, 0.0, 0.0, 0.0, 0.0, 0.0, 0.0, 0.0, 0.0, 0.0, 1.6154772740165536E9, 2021-03-11 16:41:14.016
120.0, 187500.0, 187500.0, 652.0897827148438, -3714.211669921875, 18845.828125, 25884.794921875, 53518.546875, 64028.9609375, 0.020000001415610313, 0.9220000505447388, 0.18400001525878906, 192.0, 0.0, 0.0, 0.0, 0.0, 0.0, 0.0, 0.0, 0.0, 0.0, 1.6154772740165567E9, 2021-03-11 16:41:14.016
121.0, 187500.0, 187500.0, 547.371826171875, -4643.61962890625, 18564.666015625, 25739.955078125, 52931.0078125, 62034.671875, 0.020000001415610313, 0.9220000505447388, 0.18400001525878906, 192.0, 0.0, 0.0, 0.0, 0.0, 0.0, 0.0, 0.0, 0.0, 0.0, 1.6154772740165603E9, 2021-03-11 16:41:14.016
122.0, 187500.0, 187500.0, 669.36767578125, -5075.0751953125, 18676.177734375, 25675.515625, 53202.0234375, 60649.0859375, 0.020000001415610313, 0.9220000505447388, 0.18400001525878906, 192.0, 0.0, 0.0, 0.0, 0.0, 0.0, 0.0, 0.0, 0.0, 0.0, 1.615477274016564E9, 2021-03-11 16:41:14.016
123.0, 187500.0, 187500.0, 849.8132934570312, -4500.21044921875, 18914.6484375, 25763.916015625, 53962.609375, 61730.12890625, 0.020000001415610313, 0.9220000505447388, 0.18400001525878906, 192.0, 0.0, 0.0, 0.0, 0.0, 0.0, 0.0, 0.0, 0.0, 0.0, 1.6154772740165677E9, 2021-03-11 16:41:14.016
124.0, 187500.0, 187500.0, 871.315673828125, -3638.796875, 18939.705078125, 25881.10546875, 54237.71484375, 63816.796875, 0.020000001415610313, 0.9220000505447388, 0.18400001525878906, 192.0, 0.0, 0.0, 0.0, 0.0, 0.0, 0.0, 0.0, 0.0, 0.0, 1.6154772740165708E9, 2021-03-11 16:41:14.016
125.0, 187500.0, 187500.0, 646.97119140625, -3691.65869140625, 18592.716796875, 25884.5703125, 53555.73828125, 64074.58203125, 0.024000000208616257, 0.9320000410079956, 0.18000000715255737, 192.0, 0.0, 192.0, 29.0, 32.0, 5.0, 160.0, 0.0, 0.0, 0.0, 1.615477274016577E9, 2021-03-11 16:41:14.016
126.0, 187500.0, 187500.0, 533.5137939453125, -4649.18505859375, 18441.26171875, 25734.970703125, 52908.140625, 62035.453125, 0.024000000208616257, 0.9320000410079956, 0.18000000715255737, 192.0, 0.0, 0.0, 0.0, 0.0, 0.0, 0.0, 0.0, 0.0, 0.0, 1.6154772740165803E9, 2021-03-11 16:41:14.016
127.0, 187500.0, 187500.0, 665.0314331054688, -5079.14306640625, 18677.5859375, 25674.93359375, 53174.6640625, 60661.828125, 0.024000000208616257, 0.9320000410079956, 0.18000000715255737, 192.0, 0.0, 0.0, 0.0, 0.0, 0.0, 0.0, 0.0, 0.0, 0.0, 1.6154772740165832E9, 2021-03-11 16:41:14.016
128.0, 187500.0, 187500.0, 846.0358276367188, -4481.4130859375, 19001.84375, 25769.728515625, 53941.171875, 61797.33984375, 0.024000000208616257, 0.9320000410079956, 0.18000000715255737, 192.0, 0.0, 0.0, 0.0, 0.0, 0.0, 0.0, 0.0, 0.0, 0.0, 1.6154772740165863E9, 2021-03-11 16:41:14.016
129.0, 187500.0, 187500.0, 865.8842163085938, -3622.6142578125, 19104.572265625, 25880.033203125, 54204.85546875, 63885.93359375, 0.024000000208616257, 0.9320000410079956, 0.18000000715255737, 192.0, 0.0, 0.0, 0.0, 0.0, 0.0, 0.0, 0.0, 0.0, 0.0, 1.6154772740165896E9, 2021-03-11 16:41:14.016
130.0, 187500.0, 187500.0, 643.9090576171875, -3700.26416015625, 18802.64453125, 25877.126953125, 53509.828125, 64096.7109375, 0.024000000208616257, 0.9320000410079956, 0.18000000715255737, 192.0, 0.0, 0.0, 0.0, 0.0, 0.0, 0.0, 0.0, 0.0, 0.0, 1.6154772740165925E9, 2021-03-11 16:41:14.016
131.0, 187500.0, 187500.0, 548.6906127929688, -4668.76513671875, 18632.345703125, 25735.8203125, 52892.5859375, 62033.82421875, 0.024000000208616257, 0.9320000410079956, 0.18000000715255737, 192.0, 0.0, 0.0, 0.0, 0.0, 0.0, 0.0, 0.0, 0.0, 0.0, 1.6154772740165963E9, 2021-03-11 16:41:14.016
132.0, 187500.0, 187500.0, 678.8224487304688, -5067.498046875, 18802.130859375, 25675.08984375, 53186.33203125, 60712.69921875, 0.024000000208616257, 0.9320000410079956, 0.18000000715255737, 192.0, 0.0, 0.0, 0.0, 0.0, 0.0, 0.0, 0.0, 0.0, 0.0, 1.6154772740166004E9, 2021-03-11 16:41:14.016
133.0, 187500.0, 187500.0, 860.0056762695312, -4427.74609375, 19079.60546875, 25761.904296875, 53956.484375, 61917.59375, 0.024000000208616257, 0.9320000410079956, 0.18000000715255737, 192.0, 0.0, 0.0, 0.0, 0.0, 0.0, 0.0, 0.0, 0.0, 0.0, 1.6154772740166056E9, 2021-03-11 16:41:14.016
134.0, 187500.0, 187500.0, 881.3516235351562, -3592.551025390625, 19117.6484375, 25874.22265625, 54195.73828125, 63966.2421875, 0.024000000208616257, 0.9320000410079956, 0.18000000715255737, 192.0, 0.0, 0.0, 0.0, 0.0, 0.0, 0.0, 0.0, 0.0, 0.0, 1.6154772740166085E9, 2021-03-11 16:41:14.016
135.0, 187500.0, 187500.0, 656.6495361328125, -3694.9443359375, 18762.880859375, 25870.734375, 53465.50390625, 64114.43359375, 0.03200000151991844, 0.9500000476837158, 0.17400000989437103, 192.0, 1.0, 0.0, 29.0, 176.0, 5.0, 112.0, 0.0, 0.0, 0.0, 1.615477274016612E9, 2021-03-11 16:41:14.016
136.0, 187500.0, 187500.0, 559.374755859375, -4672.095703125, 18561.580078125, 25724.46484375, 52824.5703125, 62018.265625, 0.03200000151991844, 0.9500000476837158, 0.17400000989437103, 192.0, 0.0, 0.0, 0.0, 0.0, 0.0, 0.0, 0.0, 0.0, 0.0, 1.6154772740166156E9, 2021-03-11 16:41:14.016
137.0, 187500.0, 187500.0, 695.4521484375, -5068.16845703125, 18735.58984375, 25673.056640625, 53119.12109375, 60697.65625, 0.03200000151991844, 0.9500000476837158, 0.17400000989437103, 192.0, 0.0, 0.0, 0.0, 0.0, 0.0, 0.0, 0.0, 0.0, 0.0, 1.615477274016619E9, 2021-03-11 16:41:14.016
138.0, 187500.0, 187500.0, 877.5518188476562, -4416.65966796875, 19016.259765625, 25766.576171875, 53895.640625, 61918.77734375, 0.03200000151991844, 0.9500000476837158, 0.17400000989437103, 192.0, 0.0, 0.0, 0.0, 0.0, 0.0, 0.0, 0.0, 0.0, 0.0, 1.6154772740166228E9, 2021-03-11 16:41:14.016
139.0, 187500.0, 187500.0, 877.4847412109375, -3569.551025390625, 19025.22265625, 25860.029296875, 54089.72265625, 63989.578125, 0.03200000151991844, 0.9500000476837158, 0.17400000989437103, 192.0, 0.0, 0.0, 0.0, 0.0, 0.0, 0.0, 0.0, 0.0, 0.0, 1.615477274016626E9, 2021-03-11 16:41:14.016
140.0, 187500.0, 187500.0, 638.2540283203125, -3709.607177734375, 18654.720703125, 25838.2578125, 53336.55859375, 64083.3203125, 0.03200000151991844, 0.9500000476837158, 0.17400000989437103, 192.0, 0.0, 0.0, 0.0, 0.0, 0.0, 0.0, 0.0, 0.0, 0.0, 1.6154772740166297E9, 2021-03-11 16:41:14.016
141.0, 187500.0, 187500.0, 560.3805541992188, -4660.53955078125, 18505.0078125, 25705.890625, 52772.37890625, 62009.52734375, 0.03200000151991844, 0.9500000476837158, 0.17400000989437103, 192.0, 0.0, 0.0, 0.0, 0.0, 0.0, 0.0, 0.0, 0.0, 0.0, 1.615477274016634E9, 2021-03-11 16:41:14.016
142.0, 187500.0, 187500.0, 702.895263671875, -5025.58837890625, 18712.232421875, 25655.15234375, 53122.94140625, 60753.69140625, 0.03200000151991844, 0.9500000476837158, 0.17400000989437103, 192.0, 0.0, 0.0, 0.0, 0.0, 0.0, 0.0, 0.0, 0.0, 0.0, 1.615477274016637E9, 2021-03-11 16:41:14.016
143.0, 187500.0, 187500.0, 887.1183471679688, -4368.33544921875, 19006.0, 25763.08984375, 53947.67578125, 62017.4375, 0.03200000151991844, 0.9500000476837158, 0.17400000989437103, 192.0, 0.0, 0.0, 0.0, 0.0, 0.0, 0.0, 0.0, 0.0, 0.0, 1.6154772740166404E9, 2021-03-11 16:41:14.016
144.0, 187500.0, 187500.0, 880.2787475585938, -3536.291748046875, 19026.408203125, 25861.90625, 54178.4375, 64078.94140625, 0.01600000075995922, 0.9520000219345093, 0.16600000858306885, 192.0, 0.0, 128.0, 29.0, 192.0, 5.0, 48.0, 0.0, 0.0, 0.0, 1.615477274016644E9, 2021-03-11 16:41:14.016
145.0, 187500.0, 187500.0, 649.072265625, -3690.809326171875, 18691.19921875, 25853.591796875, 53446.41796875, 64156.1875, 0.01600000075995922, 0.9520000219345093, 0.16600000858306885, 192.0, 0.0, 0.0, 0.0, 0.0, 0.0, 0.0, 0.0, 0.0, 0.0, 1.6154772740166476E9, 2021-03-11 16:41:14.016
146.0, 187500.0, 187500.0, 558.9947509765625, -4682.55615234375, 18544.458984375, 25707.09765625, 52835.54296875, 62034.87109375, 0.01600000075995922, 0.9520000219345093, 0.16600000858306885, 192.0, 0.0, 0.0, 0.0, 0.0, 0.0, 0.0, 0.0, 0.0, 0.0, 1.615477274016651E9, 2021-03-11 16:41:14.016
147.0, 187500.0, 187500.0, 700.6377563476562, -5043.60400390625, 18771.083984375, 25664.40625, 53155.30859375, 60811.16015625, 0.01600000075995922, 0.9520000219345093, 0.16600000858306885, 192.0, 0.0, 0.0, 0.0, 0.0, 0.0, 0.0, 0.0, 0.0, 0.0, 1.6154772740166535E9, 2021-03-11 16:41:14.016
148.0, 187500.0, 187500.0, 884.1008911132812, -4373.54345703125, 19084.521484375, 25775.60546875, 53913.5234375, 62119.25, 0.01600000075995922, 0.9520000219345093, 0.16600000858306885, 192.0, 0.0, 0.0, 0.0, 0.0, 0.0, 0.0, 0.0, 0.0, 0.0, 1.6154772740166569E9, 2021-03-11 16:41:14.016
149.0, 187500.0, 187500.0, 890.359375, -3539.73388671875, 19130.87890625, 25882.828125, 54109.94921875, 64175.56640625, 0.01600000075995922, 0.9520000219345093, 0.16600000858306885, 192.0, 0.0, 0.0, 0.0, 0.0, 0.0, 0.0, 0.0, 0.0, 0.0, 1.6154772744961047E9, 2021-03-11 16:41:14.496
150.0, 187500.0, 187500.0, 649.4522705078125, -3725.186279296875, 18803.76171875, 25865.013671875, 53340.11328125, 64191.81640625, 0.01600000075995922, 0.9520000219345093, 0.16600000858306885, 192.0, 0.0, 0.0, 0.0, 0.0, 0.0, 0.0, 0.0, 0.0, 0.0, 1.6154772744961252E9, 2021-03-11 16:41:14.496
151.0, 187500.0, 187500.0, 566.4826049804688, -4701.97998046875, 18668.244140625, 25723.236328125, 52749.15234375, 62078.94921875, 0.01600000075995922, 0.9520000219345093, 0.16600000858306885, 192.0, 0.0, 0.0, 0.0, 0.0, 0.0, 0.0, 0.0, 0.0, 0.0, 1.6154772744962072E9, 2021-03-11 16:41:14.496
152.0, 187500.0, 187500.0, 708.5055541992188, -5048.78955078125, 18872.337890625, 25678.845703125, 53099.13671875, 60887.9375, 0.01600000075995922, 0.9520000219345093, 0.16600000858306885, 192.0, 0.0, 0.0, 0.0, 0.0, 0.0, 0.0, 0.0, 0.0, 0.0, 1.61547727449631E9, 2021-03-11 16:41:14.496
153.0, 187500.0, 187500.0, 890.560546875, -4355.55029296875, 19159.556640625, 25789.798828125, 53885.60546875, 62239.45703125, 0.01600000075995922, 0.9520000219345093, 0.16600000858306885, 192.0, 0.0, 0.0, 0.0, 0.0, 0.0, 0.0, 0.0, 0.0, 0.0, 1.6154772744963183E9, 2021-03-11 16:41:14.496
154.0, 187500.0, 187500.0, 882.2233276367188, -3530.212158203125, 19172.296875, 25893.4453125, 54068.734375, 64279.27734375, 0.020000001415610313, 0.9380000233650208, 0.1680000126361847, 192.0, 0.0, 160.0, 29.0, 80.0, 5.0, 64.0, 0.0, 0.0, 0.0, 1.6154772744963212E9, 2021-03-11 16:41:14.496
155.0, 187500.0, 187500.0, 638.4552001953125, -3730.9306640625, 18818.55859375, 25865.9296875, 53299.4765625, 64254.01953125, 0.020000001415610313, 0.9380000233650208, 0.1680000126361847, 192.0, 0.0, 0.0, 0.0, 0.0, 0.0, 0.0, 0.0, 0.0, 0.0, 1.615477274496324E9, 2021-03-11 16:41:14.496
156.0, 187500.0, 187500.0, 564.11328125, -4728.71240234375, 18663.7734375, 25725.248046875, 52731.6953125, 62091.46875, 0.020000001415610313, 0.9380000233650208, 0.1680000126361847, 192.0, 0.0, 0.0, 0.0, 0.0, 0.0, 0.0, 0.0, 0.0, 0.0, 1.615477274496327E9, 2021-03-11 16:41:14.496
157.0, 187500.0, 187500.0, 713.5794067382812, -5044.56494140625, 18854.03125, 25689.193359375, 53115.87890625, 60939.94921875, 0.020000001415610313, 0.9380000233650208, 0.1680000126361847, 192.0, 0.0, 0.0, 0.0, 0.0, 0.0, 0.0, 0.0, 0.0, 0.0, 1.6154772744963298E9, 2021-03-11 16:41:14.496
158.0, 187500.0, 187500.0, 883.4526977539062, -4333.37744140625, 19104.125, 25784.591796875, 53879.90625, 62337.6953125, 0.020000001415610313, 0.9380000233650208, 0.1680000126361847, 192.0, 0.0, 0.0, 0.0, 0.0, 0.0, 0.0, 0.0, 0.0, 0.0, 1.6154772744963324E9, 2021-03-11 16:41:14.496
159.0, 187500.0, 187500.0, 866.4876708984375, -3546.93115234375, 19074.666015625, 25872.8359375, 54023.42578125, 64319.46875, 0.020000001415610313, 0.9380000233650208, 0.1680000126361847, 192.0, 0.0, 0.0, 0.0, 0.0, 0.0, 0.0, 0.0, 0.0, 0.0, 1.6154772744963353E9, 2021-03-11 16:41:14.496
160.0, 187500.0, 187500.0, 638.0752563476562, -3768.973388671875, 18706.486328125, 25857.63671875, 53261.74609375, 64222.50390625, 0.020000001415610313, 0.9380000233650208, 0.1680000126361847, 192.0, 0.0, 0.0, 0.0, 0.0, 0.0, 0.0, 0.0, 0.0, 0.0, 1.615477274496338E9, 2021-03-11 16:41:14.496
161.0, 187500.0, 187500.0, 566.2814331054688, -4744.31396484375, 18537.775390625, 25719.123046875, 52716.1171875, 62066.1640625, 0.020000001415610313, 0.9380000233650208, 0.1680000126361847, 192.0, 0.0, 0.0, 0.0, 0.0, 0.0, 0.0, 0.0, 0.0, 0.0, 1.6154772744963408E9, 2021-03-11 16:41:14.496
162.0, 187500.0, 187500.0, 721.24609375, -5029.83544921875, 18722.201171875, 25676.87890625, 53115.9453125, 60968.0703125, 0.020000001415610313, 0.9380000233650208, 0.1680000126361847, 192.0, 0.0, 0.0, 0.0, 0.0, 0.0, 0.0, 0.0, 0.0, 0.0, 1.6154772744963436E9, 2021-03-11 16:41:14.496
163.0, 187500.0, 187500.0, 908.0172119140625, -4297.837890625, 18980.1171875, 25788.7265625, 53910.05859375, 62401.46484375, 0.020000001415610313, 0.9380000233650208, 0.1680000126361847, 192.0, 0.0, 0.0, 0.0, 0.0, 0.0, 0.0, 0.0, 0.0, 0.0, 1.615477274496347E9, 2021-03-11 16:41:14.496
164.0, 187500.0, 187500.0, 876.166015625, -3521.986572265625, 18922.62890625, 25866.376953125, 54028.30078125, 64360.28125, 0.018000001087784767, 0.9460000395774841, 0.164000004529953, 192.0, 0.0, 144.0, 29.0, 144.0, 5.0, 32.0, 0.0, 0.0, 0.0, 1.6154772744963498E9, 2021-03-11 16:41:14.496
165.0, 187500.0, 187500.0, 620.7973022460938, -3788.352294921875, 18522.978515625, 25821.6953125, 53234.140625, 64200.421875, 0.018000001087784767, 0.9460000395774841, 0.164000004529953, 192.0, 0.0, 0.0, 0.0, 0.0, 0.0, 0.0, 0.0, 0.0, 0.0, 1.6154772744963524E9, 2021-03-11 16:41:14.496
166.0, 187500.0, 187500.0, 560.4476318359375, -4759.71435546875, 18366.361328125, 25686.265625, 52723.58203125, 62045.98046875, 0.018000001087784767, 0.9460000395774841, 0.164000004529953, 192.0, 0.0, 0.0, 0.0, 0.0, 0.0, 0.0, 0.0, 0.0, 0.0, 1.6154772744963553E9, 2021-03-11 16:41:14.496
167.0, 187500.0, 187500.0, 709.7796020507812, -5041.41357421875, 18554.697265625, 25658.505859375, 53151.8671875, 60975.3984375, 0.018000001087784767, 0.9460000395774841, 0.164000004529953, 192.0, 0.0, 0.0, 0.0, 0.0, 0.0, 0.0, 0.0, 0.0, 0.0, 1.6154772744963586E9, 2021-03-11 16:41:14.496
168.0, 187500.0, 187500.0, 878.4458618164062, -4303.78369140625, 18806.109375, 25765.927734375, 53913.0078125, 62430.90234375, 0.018000001087784767, 0.9460000395774841, 0.164000004529953, 192.0, 0.0, 0.0, 0.0, 0.0, 0.0, 0.0, 0.0, 0.0, 0.0, 1.6154772744963613E9, 2021-03-11 16:41:14.496
169.0, 187500.0, 187500.0, 865.0348510742188, -3509.8271484375, 18788.49609375, 25866.30859375, 54033.23828125, 64410.70703125, 0.018000001087784767, 0.9460000395774841, 0.164000004529953, 192.0, 0.0, 0.0, 0.0, 0.0, 0.0, 0.0, 0.0, 0.0, 0.0, 1.6154772744963655E9, 2021-03-11 16:41:14.496
170.0, 187500.0, 187500.0, 627.4805297851562, -3783.166748046875, 18431.26953125, 25842.951171875, 53257.56640625, 64205.29296875, 0.018000001087784767, 0.9460000395774841, 0.164000004529953, 192.0, 0.0, 0.0, 0.0, 0.0, 0.0, 0.0, 0.0, 0.0, 0.0, 1.6154772744963684E9, 2021-03-11 16:41:14.496
171.0, 187500.0, 187500.0, 571.310546875, -4754.30517578125, 18295.640625, 25717.939453125, 52739.87890625, 62033.01953125, 0.018000001087784767, 0.9460000395774841, 0.164000004529953, 192.0, 0.0, 0.0, 0.0, 0.0, 0.0, 0.0, 0.0, 0.0, 0.0, 1.6154772744963744E9, 2021-03-11 16:41:14.496
172.0, 187500.0, 187500.0, 723.6824340820312, -4999.97314453125, 18494.525390625, 25690.84765625, 53163.7578125, 61025.35546875, 0.018000001087784767, 0.9460000395774841, 0.164000004529953, 192.0, 0.0, 0.0, 0.0, 0.0, 0.0, 0.0, 0.0, 0.0, 0.0, 1.615477274496394E9, 2021-03-11 16:41:14.496
173.0, 187500.0, 187500.0, 891.409912109375, -4249.4462890625, 18755.302734375, 25801.064453125, 53931.4921875, 62534.09765625, 0.018000001087784767, 0.9460000395774841, 0.164000004529953, 192.0, 0.0, 0.0, 0.0, 0.0, 0.0, 0.0, 0.0, 0.0, 0.0, 1.6154772744963968E9, 2021-03-11 16:41:14.496
174.0, 187500.0, 187500.0, 857.725830078125, -3503.412353515625, 18716.1875, 25888.013671875, 54026.1328125, 64460.55078125, 0.03400000184774399, 0.956000030040741, 0.1600000113248825, 192.0, 1.0, 16.0, 29.0, 224.0, 5.0, 0.0, 0.0, 0.0, 0.0, 1.6154772744963999E9, 2021-03-11 16:41:14.496
175.0, 187500.0, 187500.0, 618.5621337890625, -3807.932373046875, 18355.162109375, 25860.990234375, 53234.4765625, 64197.13671875, 0.03400000184774399, 0.956000030040741, 0.1600000113248825, 192.0, 0.0, 0.0, 0.0, 0.0, 0.0, 0.0, 0.0, 0.0, 0.0, 1.6154772744964032E9, 2021-03-11 16:41:14.496
176.0, 187500.0, 187500.0, 564.3591918945312, -4765.14599609375, 18231.6015625, 25739.330078125, 52736.59375, 62011.9609375, 0.03400000184774399, 0.956000030040741, 0.1600000113248825, 192.0, 0.0, 0.0, 0.0, 0.0, 0.0, 0.0, 0.0, 0.0, 0.0, 1.615477274496412E9, 2021-03-11 16:41:14.496
177.0, 187500.0, 187500.0, 726.990478515625, -5001.3369140625, 18455.34375, 25720.107421875, 53177.5234375, 61008.48046875, 0.03400000184774399, 0.956000030040741, 0.1600000113248825, 192.0, 0.0, 0.0, 0.0, 0.0, 0.0, 0.0, 0.0, 0.0, 0.0, 1.6154772744964178E9, 2021-03-11 16:41:14.496
178.0, 187500.0, 187500.0, 898.9201049804688, -4215.02490234375, 18717.57421875, 25834.458984375, 53955.5, 62564.80859375, 0.03400000184774399, 0.956000030040741, 0.1600000113248825, 192.0, 0.0, 0.0, 0.0, 0.0, 0.0, 0.0, 0.0, 0.0, 0.0, 1.6154772744964209E9, 2021-03-11 16:41:14.496
179.0, 187500.0, 187500.0, 867.6947021484375, -3460.407470703125, 18673.16015625, 25916.265625, 54039.05078125, 64499.48828125, 0.03400000184774399, 0.956000030040741, 0.1600000113248825, 192.0, 0.0, 0.0, 0.0, 0.0, 0.0, 0.0, 0.0, 0.0, 0.0, 1.6154772744964235E9, 2021-03-11 16:41:14.496
180.0, 187500.0, 187500.0, 622.09375, -3800.77978515625, 18304.603515625, 25864.498046875, 53226.07421875, 64165.5546875, 0.03400000184774399, 0.956000030040741, 0.1600000113248825, 192.0, 0.0, 0.0, 0.0, 0.0, 0.0, 0.0, 0.0, 0.0, 0.0, 1.6154772744964266E9, 2021-03-11 16:41:14.496
181.0, 187500.0, 187500.0, 554.8820190429688, -4779.74169921875, 18166.291015625, 25708.796875, 52733.53125, 61952.3046875, 0.03400000184774399, 0.956000030040741, 0.1600000113248825, 192.0, 0.0, 0.0, 0.0, 0.0, 0.0, 0.0, 0.0, 0.0, 0.0, 1.6154772744964304E9, 2021-03-11 16:41:14.496
182.0, 187500.0, 187500.0, 719.6814575195312, -4997.2685546875, 18383.169921875, 25690.580078125, 53197.21875, 61001.796875, 0.03400000184774399, 0.956000030040741, 0.1600000113248825, 192.0, 0.0, 0.0, 0.0, 0.0, 0.0, 0.0, 0.0, 0.0, 0.0, 1.6154772744964337E9, 2021-03-11 16:41:14.496
183.0, 187500.0, 187500.0, 895.1873168945312, -4190.63916015625, 18639.54296875, 25816.890625, 53971.63671875, 62607.9921875, 0.03400000184774399, 0.956000030040741, 0.1600000113248825, 192.0, 0.0, 0.0, 0.0, 0.0, 0.0, 0.0, 0.0, 0.0, 0.0, 1.6154772744964364E9, 2021-03-11 16:41:14.496
184.0, 187500.0, 187500.0, 850.1708984375, -3446.1025390625, 18577.96484375, 25898.048828125, 54024.27734375, 64533.57421875, 0.052000001072883606, 0.9580000638961792, 0.15800000727176666, 192.0, 1.0, 160.0, 29.0, 240.0, 4.0, 240.0, 0.0, 0.0, 0.0, 1.6154772744964392E9, 2021-03-11 16:41:14.496
185.0, 187500.0, 187500.0, 599.9431762695312, -3826.99853515625, 18195.548828125, 25836.40234375, 53192.07421875, 64138.41796875, 0.052000001072883606, 0.9580000638961792, 0.15800000727176666, 192.0, 0.0, 0.0, 0.0, 0.0, 0.0, 0.0, 0.0, 0.0, 0.0, 1.6154772744964423E9, 2021-03-11 16:41:14.496
186.0, 187500.0, 187500.0, 553.1609497070312, -4810.94482421875, 18069.037109375, 25702.76171875, 52723.046875, 61890.4375, 0.052000001072883606, 0.9580000638961792, 0.15800000727176666, 192.0, 0.0, 0.0, 0.0, 0.0, 0.0, 0.0, 0.0, 0.0, 0.0, 1.6154772744964447E9, 2021-03-11 16:41:14.496
187.0, 187500.0, 187500.0, 717.9827270507812, -4984.79638671875, 18294.298828125, 25700.638671875, 53257.5234375, 60993.3046875, 0.052000001072883606, 0.9580000638961792, 0.15800000727176666, 192.0, 0.0, 0.0, 0.0, 0.0, 0.0, 0.0, 0.0, 0.0, 0.0, 1.615477274496447E9, 2021-03-11 16:41:14.496
188.0, 187500.0, 187500.0, 883.206787109375, -4169.091796875, 18555.43359375, 25799.923828125, 54055.859375, 62637.765625, 0.052000001072883606, 0.9580000638961792, 0.15800000727176666, 192.0, 0.0, 0.0, 0.0, 0.0, 0.0, 0.0, 0.0, 0.0, 0.0, 1.61547727449645E9, 2021-03-11 16:41:14.496
189.0, 187500.0, 187500.0, 837.3186645507812, -3438.949951171875, 18495.017578125, 25895.1875, 54102.57421875, 64543.5859375, 0.052000001072883606, 0.9580000638961792, 0.15800000727176666, 192.0, 0.0, 0.0, 0.0, 0.0, 0.0, 0.0, 0.0, 0.0, 0.0, 1.6154772744964528E9, 2021-03-11 16:41:14.496
190.0, 187500.0, 187500.0, 600.2337036132812, -3833.8828125, 18135.69140625, 25871.763671875, 53299.69921875, 64106.54296875, 0.052000001072883606, 0.9580000638961792, 0.15800000727176666, 192.0, 0.0, 0.0, 0.0, 0.0, 0.0, 0.0, 0.0, 0.0, 0.0, 1.6154772744964552E9, 2021-03-11 16:41:14.496
191.0, 187500.0, 187500.0, 559.5982666015625, -4819.12548828125, 18028.916015625, 25746.638671875, 52850.453125, 61867.703125, 0.052000001072883606, 0.9580000638961792, 0.15800000727176666, 192.0, 0.0, 0.0, 0.0, 0.0, 0.0, 0.0, 0.0, 0.0, 0.0, 1.615477274496458E9, 2021-03-11 16:41:14.496
192.0, 187500.0, 187500.0, 725.8281860351562, -4981.24267578125, 18263.7890625, 25726.8125, 53317.19921875, 61007.16015625, 0.052000001072883606, 0.9580000638961792, 0.15800000727176666, 192.0, 0.0, 0.0, 0.0, 0.0, 0.0, 0.0, 0.0, 0.0, 0.0, 1.615477274496461E9, 2021-03-11 16:41:14.496
193.0, 187500.0, 187500.0, 903.8598022460938, -4153.333984375, 18554.697265625, 25849.74609375, 54076.98046875, 62670.95703125, 0.052000001072883606, 0.9580000638961792, 0.15800000727176666, 192.0, 0.0, 0.0, 0.0, 0.0, 0.0, 0.0, 0.0, 0.0, 0.0, 1.615477274496464E9, 2021-03-11 16:41:14.496
194.0, 187500.0, 187500.0, 856.7647094726562, -3413.826416015625, 18509.27734375, 25942.39453125, 54116.1640625, 64584.71484375, 0.052000001072883606, 0.9640000462532043, 0.16200000047683716, 192.0, 1.0, 160.0, 30.0, 32.0, 5.0, 16.0, 0.0, 0.0, 0.0, 1.6154772744964666E9, 2021-03-11 16:41:14.496
195.0, 187500.0, 187500.0, 612.3036499023438, -3830.5078125, 18152.701171875, 25894.919921875, 53302.5390625, 64113.49609375, 0.052000001072883606, 0.9640000462532043, 0.16200000047683716, 192.0, 0.0, 0.0, 0.0, 0.0, 0.0, 0.0, 0.0, 0.0, 0.0, 1.6154772744964738E9, 2021-03-11 16:41:14.496
196.0, 187500.0, 187500.0, 573.2998657226562, -4816.93505859375, 18069.126953125, 25759.2890625, 52867.9296875, 61854.31640625, 0.052000001072883606, 0.9640000462532043, 0.16200000047683716, 192.0, 0.0, 0.0, 0.0, 0.0, 0.0, 0.0, 0.0, 0.0, 0.0, 1.6154772744964767E9, 2021-03-11 16:41:14.496
197.0, 187500.0, 187500.0, 736.3558349609375, -4986.42822265625, 18324.33984375, 25743.44140625, 53350.34765625, 61017.9375, 0.052000001072883606, 0.9640000462532043, 0.16200000047683716, 192.0, 0.0, 0.0, 0.0, 0.0, 0.0, 0.0, 0.0, 0.0, 0.0, 1.6154772744964793E9, 2021-03-11 16:41:14.496
198.0, 187500.0, 187500.0, 890.0687866210938, -4144.99658203125, 18596.60546875, 25853.0546875, 54080.58203125, 62727.0625, 0.052000001072883606, 0.9640000462532043, 0.16200000047683716, 192.0, 0.0, 0.0, 0.0, 0.0, 0.0, 0.0, 0.0, 0.0, 0.0, 1.6154772744964817E9, 2021-03-11 16:41:14.496
199.0, 187500.0, 187500.0, 830.0990600585938, -3431.59619140625, 18552.08203125, 25946.8203125, 54069.0703125, 64623.7421875, 0.052000001072883606, 0.9640000462532043, 0.16200000047683716, 192.0, 0.0, 0.0, 0.0, 0.0, 0.0, 0.0, 0.0, 0.0, 0.0, 1.6154772744964848E9, 2021-03-11 16:41:14.496
200.0, 187500.0, 187500.0, 593.2823486328125, -3876.328857421875, 18222.236328125, 25881.375, 53214.16015625, 64094.09375, 0.052000001072883606, 0.9640000462532043, 0.16200000047683716, 192.0, 0.0, 0.0, 0.0, 0.0, 0.0, 0.0, 0.0, 0.0, 0.0, 1.6154772744964876E9, 2021-03-11 16:41:14.496
201.0, 187500.0, 187500.0, 555.8878784179688, -4867.89697265625, 18144.005859375, 25733.8984375, 52767.16796875, 61835.6953125, 0.052000001072883606, 0.9640000462532043, 0.16200000047683716, 192.0, 0.0, 0.0, 0.0, 0.0, 0.0, 0.0, 0.0, 0.0, 0.0, 1.6154772744964905E9, 2021-03-11 16:41:14.496
202.0, 187500.0, 187500.0, 734.634765625, -4988.06005859375, 18411.533203125, 25747.263671875, 53275.55859375, 61063.2421875, 0.052000001072883606, 0.9640000462532043, 0.16200000047683716, 192.0, 0.0, 0.0, 0.0, 0.0, 0.0, 0.0, 0.0, 0.0, 0.0, 1.615477274496493E9, 2021-03-11 16:41:14.496
203.0, 187500.0, 187500.0, 908.84423828125, -4119.49365234375, 18693.5, 25874.22265625, 54029.55078125, 62812.0859375, 0.052000001072883606, 0.9640000462532043, 0.16200000047683716, 192.0, 0.0, 0.0, 0.0, 0.0, 0.0, 0.0, 0.0, 0.0, 0.0, 1.6154772744964964E9, 2021-03-11 16:41:14.496
204.0, 187500.0, 187500.0, 845.633544921875, -3411.971435546875, 18629.5078125, 25956.498046875, 54015.22265625, 64694.28515625, 0.046000003814697266, 0.9460000395774841, 0.1720000058412552, 192.0, 1.0, 112.0, 29.0, 144.0, 5.0, 96.0, 0.0, 0.0, 0.0, 1.6154772744964995E9, 2021-03-11 16:41:14.496
205.0, 187500.0, 187500.0, 590.2424926757812, -3895.707763671875, 18276.08203125, 25888.05859375, 53159.0625, 64104.7578125, 0.046000003814697266, 0.9460000395774841, 0.1720000058412552, 192.0, 0.0, 0.0, 0.0, 0.0, 0.0, 0.0, 0.0, 0.0, 0.0, 1.6154772744965024E9, 2021-03-11 16:41:14.496
206.0, 187500.0, 187500.0, 564.5379638671875, -4883.83349609375, 18199.884765625, 25756.25, 52731.36328125, 61826.46484375, 0.046000003814697266, 0.9460000395774841, 0.1720000058412552, 192.0, 0.0, 0.0, 0.0, 0.0, 0.0, 0.0, 0.0, 0.0, 0.0, 1.6154772744965048E9, 2021-03-11 16:41:14.496
207.0, 187500.0, 187500.0, 709.9584350585938, -4999.2802734375, 18415.712890625, 25736.556640625, 53229.87109375, 61093.28515625, 0.046000003814697266, 0.9460000395774841, 0.1720000058412552, 192.0, 0.0, 0.0, 0.0, 0.0, 0.0, 0.0, 0.0, 0.0, 0.0, 1.6154772744965076E9, 2021-03-11 16:41:14.496
208.0, 187500.0, 187500.0, 839.4197387695312, -4151.81396484375, 18649.580078125, 25838.146484375, 53967.5234375, 62858.37890625, 0.046000003814697266, 0.9460000395774841, 0.1720000058412552, 192.0, 0.0, 0.0, 0.0, 0.0, 0.0, 0.0, 0.0, 0.0, 0.0, 1.6154772744965105E9, 2021-03-11 16:41:14.496
209.0, 187500.0, 187500.0, 735.081787109375, -3477.6630859375, 18543.4765625, 25907.83984375, 53922.9765625, 64707.875, 0.046000003814697266, 0.9460000395774841, 0.1720000058412552, 192.0, 0.0, 0.0, 0.0, 0.0, 0.0, 0.0, 0.0, 0.0, 0.0, 1.6154772744965131E9, 2021-03-11 16:41:14.496
210.0, 187500.0, 187500.0, 505.68585205078125, -3985.181884765625, 18190.138671875, 25858.12890625, 53079.1328125, 64071.4296875, 0.046000003814697266, 0.9460000395774841, 0.1720000058412552, 192.0, 0.0, 0.0, 0.0, 0.0, 0.0, 0.0, 0.0, 0.0, 0.0, 1.615477274496516E9, 2021-03-11 16:41:14.496
211.0, 187500.0, 187500.0, 538.8558349609375, -4937.20947265625, 18131.17578125, 25762.44140625, 52700.44921875, 61804.55859375, 0.046000003814697266, 0.9460000395774841, 0.1720000058412552, 192.0, 0.0, 0.0, 0.0, 0.0, 0.0, 0.0, 0.0, 0.0, 0.0, 1.6154772744965184E9, 2021-03-11 16:41:14.496
212.0, 187500.0, 187500.0, 734.3441772460938, -4991.1220703125, 18366.181640625, 25783.541015625, 53278.62109375, 61127.48046875, 0.046000003814697266, 0.9460000395774841, 0.1720000058412552, 192.0, 0.0, 0.0, 0.0, 0.0, 0.0, 0.0, 0.0, 0.0, 0.0, 1.6154772744965212E9, 2021-03-11 16:41:14.496
213.0, 187500.0, 187500.0, 894.8297119140625, -4082.5458984375, 18601.9921875, 25891.34375, 54044.55078125, 62962.26953125, 0.046000003814697266, 0.9460000395774841, 0.1720000058412552, 192.0, 0.0, 0.0, 0.0, 0.0, 0.0, 0.0, 0.0, 0.0, 0.0, 1.6154772744965236E9, 2021-03-11 16:41:14.496
214.0, 187500.0, 187500.0, 802.2711181640625, -3388.30078125, 18511.580078125, 25966.9375, 54003.33203125, 64814.22265625, 0.03200000151991844, 0.9420000314712524, 0.1680000126361847, 192.0, 1.0, 0.0, 29.0, 112.0, 5.0, 64.0, 0.0, 0.0, 0.0, 1.6154772744965262E9, 2021-03-11 16:41:14.496
215.0, 187500.0, 187500.0, 584.2298583984375, -3923.312255859375, 18183.8359375, 25921.630859375, 53193.640625, 64093.3359375, 0.03200000151991844, 0.9420000314712524, 0.1680000126361847, 192.0, 0.0, 0.0, 0.0, 0.0, 0.0, 0.0, 0.0, 0.0, 0.0, 1.615477274496529E9, 2021-03-11 16:41:14.496
216.0, 187500.0, 187500.0, 581.3911743164062, -4908.24169921875, 18113.919921875, 25790.314453125, 52814.3984375, 61788.53515625, 0.03200000151991844, 0.9420000314712524, 0.1680000126361847, 192.0, 0.0, 0.0, 0.0, 0.0, 0.0, 0.0, 0.0, 0.0, 0.0, 1.6154772744965315E9, 2021-03-11 16:41:14.496
217.0, 187500.0, 187500.0, 751.2421264648438, -4972.279296875, 18357.6875, 25800.1484375, 53361.3671875, 61135.8203125, 0.03200000151991844, 0.9420000314712524, 0.1680000126361847, 192.0, 0.0, 0.0, 0.0, 0.0, 0.0, 0.0, 0.0, 0.0, 0.0, 1.6154772744965348E9, 2021-03-11 16:41:14.496
218.0, 187500.0, 187500.0, 902.496337890625, -4048.68310546875, 18599.623046875, 25917.451171875, 54111.9609375, 63002.0546875, 0.03200000151991844, 0.9420000314712524, 0.1680000126361847, 192.0, 0.0, 0.0, 0.0, 0.0, 0.0, 0.0, 0.0, 0.0, 0.0, 1.6154772744965372E9, 2021-03-11 16:41:14.496
219.0, 187500.0, 187500.0, 784.5685424804688, -3393.59814453125, 18471.32421875, 25970.2890625, 54021.55078125, 64810.51171875, 0.03200000151991844, 0.9420000314712524, 0.1680000126361847, 192.0, 0.0, 0.0, 0.0, 0.0, 0.0, 0.0, 0.0, 0.0, 0.0, 1.6154772744965432E9, 2021-03-11 16:41:14.496
220.0, 187500.0, 187500.0, 434.49554443359375, -4043.407958984375, 18058.419921875, 25844.62890625, 53111.23046875, 63979.51953125, 0.03200000151991844, 0.9420000314712524, 0.1680000126361847, 192.0, 0.0, 0.0, 0.0, 0.0, 0.0, 0.0, 0.0, 0.0, 0.0, 1.615477274496546E9, 2021-03-11 16:41:14.496
221.0, 187500.0, 187500.0, 332.3033752441406, -5076.72900390625, 17959.15625, 25701.353515625, 52712.69921875, 61643.671875, 0.03200000151991844, 0.9420000314712524, 0.1680000126361847, 192.0, 0.0, 0.0, 0.0, 0.0, 0.0, 0.0, 0.0, 0.0, 0.0, 1.6154772744965487E9, 2021-03-11 16:41:14.496
222.0, 187500.0, 187500.0, 590.2648315429688, -5077.51171875, 18241.1015625, 25733.31640625, 53288.2109375, 61067.78125, 0.03200000151991844, 0.9420000314712524, 0.1680000126361847, 192.0, 0.0, 0.0, 0.0, 0.0, 0.0, 0.0, 0.0, 0.0, 0.0, 1.6154772744965513E9, 2021-03-11 16:41:14.496
223.0, 187500.0, 187500.0, 777.4830322265625, -4131.09375, 18489.921875, 25883.564453125, 54051.90234375, 62990.07421875, 0.03200000151991844, 0.9420000314712524, 0.1680000126361847, 192.0, 0.0, 0.0, 0.0, 0.0, 0.0, 0.0, 0.0, 0.0, 0.0, 1.615477274496554E9, 2021-03-11 16:41:14.496
224.0, 187500.0, 187500.0, 739.9097900390625, -3455.020751953125, 18421.435546875, 25975.474609375, 53984.6484375, 64800.41015625, 0.014000000432133675, 0.9420000314712524, 0.16600000858306885, 192.0, 0.0, 112.0, 29.0, 112.0, 5.0, 48.0, 0.0, 0.0, 0.0, 1.6154772744965563E9, 2021-03-11 16:41:14.496
225.0, 187500.0, 187500.0, 477.813232421875, -4098.68408203125, 18036.046875, 25877.126953125, 53093.4609375, 63961.28125, 0.014000000432133675, 0.9420000314712524, 0.16600000858306885, 192.0, 0.0, 0.0, 0.0, 0.0, 0.0, 0.0, 0.0, 0.0, 0.0, 1.6154772744965591E9, 2021-03-11 16:41:14.496
226.0, 187500.0, 187500.0, 491.49249267578125, -5080.37255859375, 18005.3125, 25761.658203125, 52735.85546875, 61639.3359375, 0.014000000432133675, 0.9420000314712524, 0.16600000858306885, 192.0, 0.0, 0.0, 0.0, 0.0, 0.0, 0.0, 0.0, 0.0, 0.0, 1.6154772744965618E9, 2021-03-11 16:41:14.496
227.0, 187500.0, 187500.0, 578.21728515625, -5060.36767578125, 18228.31640625, 25762.865234375, 53291.40625, 61080.1640625, 0.014000000432133675, 0.9420000314712524, 0.16600000858306885, 192.0, 0.0, 0.0, 0.0, 0.0, 0.0, 0.0, 0.0, 0.0, 0.0, 1.6154772744965646E9, 2021-03-11 16:41:14.496
228.0, 187500.0, 187500.0, 894.8297119140625, -3996.0224609375, 18589.4765625, 25991.255859375, 54086.4375, 63044.94921875, 0.014000000432133675, 0.9420000314712524, 0.16600000858306885, 192.0, 0.0, 0.0, 0.0, 0.0, 0.0, 0.0, 0.0, 0.0, 0.0, 1.6154772744965675E9, 2021-03-11 16:41:14.496
229.0, 187500.0, 187500.0, 819.6607666015625, -3372.00634765625, 18468.955078125, 26015.283203125, 53956.52734375, 64784.359375, 0.014000000432133675, 0.9420000314712524, 0.16600000858306885, 192.0, 0.0, 0.0, 0.0, 0.0, 0.0, 0.0, 0.0, 0.0, 0.0, 1.6154772744965703E9, 2021-03-11 16:41:14.496
230.0, 187500.0, 187500.0, 450.3205871582031, -4059.85888671875, 18074.89453125, 25902.005859375, 53054.3203125, 63872.43359375, 0.014000000432133675, 0.9420000314712524, 0.16600000858306885, 192.0, 0.0, 0.0, 0.0, 0.0, 0.0, 0.0, 0.0, 0.0, 0.0, 1.615477274496573E9, 2021-03-11 16:41:14.496
231.0, 187500.0, 187500.0, 467.5984802246094, -5030.61767578125, 18046.640625, 25799.8359375, 52713.4375, 61592.0859375, 0.014000000432133675, 0.9420000314712524, 0.16600000858306885, 192.0, 0.0, 0.0, 0.0, 0.0, 0.0, 0.0, 0.0, 0.0, 0.0, 1.6154772744965756E9, 2021-03-11 16:41:14.496
232.0, 187500.0, 187500.0, 503.04833984375, -5089.15673828125, 18234.8203125, 25748.26953125, 53239.4609375, 61079.6953125, 0.014000000432133675, 0.9420000314712524, 0.16600000858306885, 192.0, 0.0, 0.0, 0.0, 0.0, 0.0, 0.0, 0.0, 0.0, 0.0, 1.6154772744965785E9, 2021-03-11 16:41:14.496
233.0, 187500.0, 187500.0, 489.6149597167969, -4185.56494140625, 18393.361328125, 25817.0234375, 53902.6171875, 62997.29296875, 0.014000000432133675, 0.9420000314712524, 0.16600000858306885, 192.0, 0.0, 0.0, 0.0, 0.0, 0.0, 0.0, 0.0, 0.0, 0.0, 1.6154772744965808E9, 2021-03-11 16:41:14.496
234.0, 187500.0, 187500.0, 435.0096435546875, -3601.7822265625, 18354.9609375, 25909.515625, 53789.0234375, 64719.3828125, 0.004000000189989805, 0.940000057220459, 0.1720000058412552, 192.0, 0.0, 32.0, 29.0, 96.0, 5.0, 96.0, 0.0, 0.0, 0.0, 1.6154772744965837E9, 2021-03-11 16:41:14.496
235.0, 187500.0, 187500.0, 450.4546813964844, -4132.9716796875, 18137.232421875, 25954.21875, 53006.71484375, 63862.93359375, 0.004000000189989805, 0.940000057220459, 0.1720000058412552, 192.0, 0.0, 0.0, 0.0, 0.0, 0.0, 0.0, 0.0, 0.0, 0.0, 1.6154772744965863E9, 2021-03-11 16:41:14.496
236.0, 187500.0, 187500.0, 593.1929321289062, -4997.08984375, 18218.81640625, 25915.482421875, 52742.4921875, 61602.94921875, 0.004000000189989805, 0.940000057220459, 0.1720000058412552, 192.0, 0.0, 0.0, 0.0, 0.0, 0.0, 0.0, 0.0, 0.0, 0.0, 1.6154772744965887E9, 2021-03-11 16:41:14.496
237.0, 187500.0, 187500.0, 657.275390625, -5024.38134765625, 18402.16796875, 25885.732421875, 53298.60546875, 61145.49609375, 0.004000000189989805, 0.940000057220459, 0.1720000058412552, 192.0, 0.0, 0.0, 0.0, 0.0, 0.0, 0.0, 0.0, 0.0, 0.0, 1.6154772744965916E9, 2021-03-11 16:41:14.496
238.0, 187500.0, 187500.0, 773.8843994140625, -4102.1484375, 18617.99609375, 26025.365234375, 54011.55859375, 63118.44140625, 0.004000000189989805, 0.940000057220459, 0.1720000058412552, 192.0, 0.0, 0.0, 0.0, 0.0, 0.0, 0.0, 0.0, 0.0, 0.0, 1.615477274496594E9, 2021-03-11 16:41:14.496
239.0, 187500.0, 187500.0, 609.3756103515625, -3455.311279296875, 18450.044921875, 26091.615234375, 53880.7109375, 64803.42578125, 0.004000000189989805, 0.940000057220459, 0.1720000058412552, 192.0, 0.0, 0.0, 0.0, 0.0, 0.0, 0.0, 0.0, 0.0, 0.0, 1.6154772744965968E9, 2021-03-11 16:41:14.496
240.0, 187500.0, 187500.0, 424.839599609375, -4087.66455078125, 18112.578125, 25972.099609375, 53008.703125, 63830.1640625, 0.004000000189989805, 0.940000057220459, 0.1720000058412552, 192.0, 0.0, 0.0, 0.0, 0.0, 0.0, 0.0, 0.0, 0.0, 0.0, 1.6154772744965997E9, 2021-03-11 16:41:14.496
241.0, 187500.0, 187500.0, 520.9744262695312, -4993.20068359375, 18090.2265625, 25915.4609375, 52746.515625, 61596.28515625, 0.004000000189989805, 0.940000057220459, 0.1720000058412552, 192.0, 0.0, 0.0, 0.0, 0.0, 0.0, 0.0, 0.0, 0.0, 0.0, 1.6154772744966023E9, 2021-03-11 16:41:14.496
242.0, 187500.0, 187500.0, 733.4948120117188, -4917.6962890625, 18312.73828125, 25990.09375, 53347.0859375, 61217.55859375, 0.004000000189989805, 0.940000057220459, 0.1720000058412552, 192.0, 0.0, 0.0, 0.0, 0.0, 0.0, 0.0, 0.0, 0.0, 0.0, 1.615477274496607E9, 2021-03-11 16:41:14.496
243.0, 187500.0, 187500.0, 937.4992065429688, -3939.53955078125, 18535.33984375, 26088.26171875, 54090.83984375, 63235.69921875, 0.004000000189989805, 0.940000057220459, 0.1720000058412552, 192.0, 0.0, 0.0, 0.0, 0.0, 0.0, 0.0, 0.0, 0.0, 0.0, 1.61547727449661E9, 2021-03-11 16:41:14.496
244.0, 187500.0, 187500.0, 743.374267578125, -3404.81884765625, 18302.904296875, 26118.19140625, 53949.0390625, 64910.3359375, 0.020000001415610313, 0.9480000734329224, 0.17000000178813934, 192.0, 0.0, 160.0, 29.0, 160.0, 5.0, 80.0, 0.0, 0.0, 0.0, 1.6154772744966123E9, 2021-03-11 16:41:14.496
245.0, 187500.0, 187500.0, 434.7637634277344, -4123.04736328125, 17872.365234375, 26021.85546875, 53077.96875, 63879.25, 0.020000001415610313, 0.9480000734329224, 0.17000000178813934, 192.0, 0.0, 0.0, 0.0, 0.0, 0.0, 0.0, 0.0, 0.0, 0.0, 1.6154772744966152E9, 2021-03-11 16:41:14.496
246.0, 187500.0, 187500.0, 395.4470520019531, -5149.95361328125, 17750.01171875, 25931.107421875, 52773.671875, 61572.1484375, 0.020000001415610313, 0.9480000734329224, 0.17000000178813934, 192.0, 0.0, 0.0, 0.0, 0.0, 0.0, 0.0, 0.0, 0.0, 0.0, 1.615477274496618E9, 2021-03-11 16:41:14.496
247.0, 187500.0, 187500.0, 576.1162109375, -5037.501953125, 18027.306640625, 26061.73046875, 53400.86328125, 61249.8359375, 0.020000001415610313, 0.9480000734329224, 0.17000000178813934, 192.0, 0.0, 0.0, 0.0, 0.0, 0.0, 0.0, 0.0, 0.0, 0.0, 1.615477274496621E9, 2021-03-11 16:41:14.496
248.0, 187500.0, 187500.0, 769.3023071289062, -4076.98046875, 18219.80078125, 26154.87109375, 54131.69921875, 63307.515625, 0.020000001415610313, 0.9480000734329224, 0.17000000178813934, 192.0, 0.0, 0.0, 0.0, 0.0, 0.0, 0.0, 0.0, 0.0, 0.0, 1.615477274496624E9, 2021-03-11 16:41:14.496
249.0, 187500.0, 187500.0, 664.0032348632812, -3451.37744140625, 18042.86328125, 26236.09765625, 53952.48046875, 64944.9140625, 0.020000001415610313, 0.9480000734329224, 0.17000000178813934, 192.0, 0.0, 0.0, 0.0, 0.0, 0.0, 0.0, 0.0, 0.0, 0.0, 1.615477274496627E9, 2021-03-11 16:41:14.496
250.0, 187500.0, 187500.0, 378.8173522949219, -4119.00146484375, 17609.955078125, 26126.484375, 53077.79296875, 63846.6171875, 0.020000001415610313, 0.9480000734329224, 0.17000000178813934, 192.0, 0.0, 0.0, 0.0, 0.0, 0.0, 0.0, 0.0, 0.0, 0.0, 1.6154772744966297E9, 2021-03-11 16:41:14.496
251.0, 187500.0, 187500.0, 549.5176391601562, -5006.9248046875, 17261.044921875, 26020.6484375, 52852.3515625, 61594.05078125, 0.020000001415610313, 0.9480000734329224, 0.17000000178813934, 192.0, 0.0, 0.0, 0.0, 0.0, 0.0, 0.0, 0.0, 0.0, 0.0, 1.6154772744966328E9, 2021-03-11 16:41:14.496
252.0, 187500.0, 187500.0, 685.4385986328125, -4947.0888671875, 17149.62109375, 26070.8046875, 53468.5234375, 61261.94921875, 0.020000001415610313, 0.9480000734329224, 0.17000000178813934, 192.0, 0.0, 0.0, 0.0, 0.0, 0.0, 0.0, 0.0, 0.0, 0.0, 1.6154772744966357E9, 2021-03-11 16:41:14.496
253.0, 187500.0, 187500.0, 920.690673828125, -3866.046875, 17337.419921875, 26277.111328125, 54245.58203125, 63369.3828125, 0.04000000283122063, 0.9480000734329224, 0.16600000858306885, 192.0, 1.0, 64.0, 29.0, 160.0, 5.0, 48.0, 0.0, 0.0, 0.0, 1.6154772744966385E9, 2021-03-11 16:41:14.496
254.0, 187500.0, 187500.0, 795.5656127929688, -3345.363037109375, 17103.5546875, 26240.455078125, 54097.30078125, 64988.140625, 0.04000000283122063, 0.9480000734329224, 0.16600000858306885, 192.0, 0.0, 0.0, 0.0, 0.0, 0.0, 0.0, 0.0, 0.0, 0.0, 1.615477274496642E9, 2021-03-11 16:41:14.496
255.0, 187500.0, 187500.0, 536.0394897460938, -4133.3291015625, 16667.001953125, 26154.267578125, 53221.828125, 63849.609375, 0.04000000283122063, 0.9480000734329224, 0.16600000858306885, 192.0, 0.0, 0.0, 0.0, 0.0, 0.0, 0.0, 0.0, 0.0, 0.0, 1.6154772744966447E9, 2021-03-11 16:41:14.496
0.0, 187500.0, 187500.0, 542.0074462890625, -5074.5166015625, 16661.8828125, 26127.712890625, 53027.8359375, 61600.19921875, 0.04000000283122063, 0.9480000734329224, 0.16600000858306885, 192.0, 0.0, 0.0, 0.0, 0.0, 0.0, 0.0, 0.0, 0.0, 0.0, 1.615477274496648E9, 2021-03-11 16:41:14.496
1.0, 187500.0, 187500.0, 738.0322265625, -4880.48095703125, 16909.853515625, 26097.13671875, 53668.0546875, 61349.2109375, 0.04000000283122063, 0.9480000734329224, 0.16600000858306885, 192.0, 0.0, 0.0, 0.0, 0.0, 0.0, 0.0, 0.0, 0.0, 0.0, 1.6154772744966507E9, 2021-03-11 16:41:14.496
2.0, 187500.0, 187500.0, 793.6657104492188, -3894.031494140625, 17045.8203125, 26219.69140625, 54340.53125, 63438.13671875, 0.04000000283122063, 0.9480000734329224, 0.16600000858306885, 192.0, 0.0, 0.0, 0.0, 0.0, 0.0, 0.0, 0.0, 0.0, 0.0, 1.615477274496654E9, 2021-03-11 16:41:14.496
3.0, 187500.0, 187500.0, 715.4569702148438, -3382.7353515625, 16923.5546875, 26310.595703125, 54172.7578125, 65029.94140625, 0.04000000283122063, 0.9480000734329224, 0.16600000858306885, 192.0, 0.0, 0.0, 0.0, 0.0, 0.0, 0.0, 0.0, 0.0, 0.0, 1.6154772744966571E9, 2021-03-11 16:41:14.496
4.0, 187500.0, 187500.0, 456.7131652832031, -4158.07275390625, 16494.177734375, 26114.548828125, 53294.26953125, 63864.09375, 0.04000000283122063, 0.9480000734329224, 0.16600000858306885, 192.0, 0.0, 0.0, 0.0, 0.0, 0.0, 0.0, 0.0, 0.0, 0.0, 1.6154772744966607E9, 2021-03-11 16:41:14.496
5.0, 187500.0, 187500.0, 524.684814453125, -5102.6796875, 16503.587890625, 26001.6484375, 53079.69140625, 61611.3984375, 0.04000000283122063, 0.9480000734329224, 0.16600000858306885, 192.0, 0.0, 0.0, 0.0, 0.0, 0.0, 0.0, 0.0, 0.0, 0.0, 1.6154772744966636E9, 2021-03-11 16:41:14.496
6.0, 187500.0, 187500.0, 769.369384765625, -4873.328125, 16789.646484375, 26107.306640625, 53768.2578125, 61434.4609375, 0.04000000283122063, 0.9480000734329224, 0.16600000858306885, 192.0, 0.0, 0.0, 0.0, 0.0, 0.0, 0.0, 0.0, 0.0, 0.0, 1.6154772744966667E9, 2021-03-11 16:41:14.496
7.0, 187500.0, 187500.0, 834.189453125, -3906.906005859375, 16914.548828125, 26103.685546875, 54391.9609375, 63539.99609375, 0.05400000140070915, 0.9480000734329224, 0.1860000044107437, 192.0, 1.0, 176.0, 29.0, 160.0, 5.0, 208.0, 0.0, 0.0, 0.0, 1.6154772744966702E9, 2021-03-11 16:41:14.496
8.0, 187500.0, 187500.0, 697.5084838867188, -3434.99365234375, 16722.94921875, 26115.509765625, 54182.7734375, 65077.3046875, 0.05400000140070915, 0.9480000734329224, 0.1860000044107437, 192.0, 0.0, 0.0, 0.0, 0.0, 0.0, 0.0, 0.0, 0.0, 0.0, 1.6154772744966736E9, 2021-03-11 16:41:14.496
9.0, 187500.0, 187500.0, 596.5009765625, -4130.9150390625, 16413.9140625, 25997.291015625, 53378.66796875, 63872.3203125, 0.05400000140070915, 0.9480000734329224, 0.1860000044107437, 192.0, 0.0, 0.0, 0.0, 0.0, 0.0, 0.0, 0.0, 0.0, 0.0, 1.6154772744966788E9, 2021-03-11 16:41:14.496
10.0, 187500.0, 187500.0, 650.1451416015625, -4963.6962890625, 16413.287109375, 25863.470703125, 53202.60546875, 61650.421875, 0.05400000140070915, 0.9480000734329224, 0.1860000044107437, 192.0, 0.0, 0.0, 0.0, 0.0, 0.0, 0.0, 0.0, 0.0, 0.0, 1.615477274496682E9, 2021-03-11 16:41:14.496
11.0, 187500.0, 187500.0, 801.8017578125, -4800.30517578125, 16638.615234375, 25771.470703125, 53809.1171875, 61506.1640625, 0.05400000140070915, 0.9480000734329224, 0.1860000044107437, 192.0, 0.0, 0.0, 0.0, 0.0, 0.0, 0.0, 0.0, 0.0, 0.0, 1.6154772744966855E9, 2021-03-11 16:41:14.496
12.0, 187500.0, 187500.0, 867.9405517578125, -3850.15478515625, 16806.8125, 25892.884765625, 54359.91015625, 63662.97265625, 0.05400000140070915, 0.9480000734329224, 0.1860000044107437, 192.0, 0.0, 0.0, 0.0, 0.0, 0.0, 0.0, 0.0, 0.0, 0.0, 1.6154772744966888E9, 2021-03-11 16:41:14.496
13.0, 187500.0, 187500.0, 711.3665771484375, -3412.708984375, 16644.025390625, 25932.515625, 53984.55859375, 65174.62109375, 0.05400000140070915, 0.9480000734329224, 0.1860000044107437, 192.0, 0.0, 0.0, 0.0, 0.0, 0.0, 0.0, 0.0, 0.0, 0.0, 1.61547727497625E9, 2021-03-11 16:41:14.976
14.0, 187500.0, 187500.0, 498.2203674316406, -4210.64404296875, 16259.3740234375, 25770.197265625, 53050.90234375, 63891.51953125, 0.05400000140070915, 0.9480000734329224, 0.1860000044107437, 192.0, 0.0, 0.0, 0.0, 0.0, 0.0, 0.0, 0.0, 0.0, 0.0, 1.615477274976296E9, 2021-03-11 16:41:14.976
15.0, 187500.0, 187500.0, 445.49261474609375, -5167.29833984375, 16208.9033203125, 25609.689453125, 52816.8125, 61634.08203125, 0.05400000140070915, 0.9480000734329224, 0.1860000044107437, 192.0, 0.0, 0.0, 0.0, 0.0, 0.0, 0.0, 0.0, 0.0, 0.0, 1.615477274976312E9, 2021-03-11 16:41:14.976
16.0, 187500.0, 187500.0, 649.6534423828125, -4876.189453125, 16474.107421875, 25638.142578125, 53514.27734375, 61582.4296875, 0.05400000140070915, 0.9480000734329224, 0.1860000044107437, 192.0, 0.0, 0.0, 0.0, 0.0, 0.0, 0.0, 0.0, 0.0, 0.0, 1.6154772749763255E9, 2021-03-11 16:41:14.976
17.0, 187500.0, 187500.0, 795.1409301757812, -3855.78759765625, 16679.384765625, 25590.7578125, 54198.015625, 63740.55859375, 0.07600000500679016, 0.940000057220459, 0.18800000846385956, 192.0, 2.0, 96.0, 29.0, 96.0, 5.0, 224.0, 0.0, 0.0, 0.0, 1.615477274976338E9, 2021-03-11 16:41:14.976
18.0, 187500.0, 187500.0, 695.4298095703125, -3431.99853515625, 16508.7734375, 25621.84765625, 53940.8828125, 65215.34765625, 0.07600000500679016, 0.940000057220459, 0.18800000846385956, 192.0, 0.0, 0.0, 0.0, 0.0, 0.0, 0.0, 0.0, 0.0, 0.0, 1.6154772749763527E9, 2021-03-11 16:41:14.976
19.0, 187500.0, 187500.0, 546.2989501953125, -4217.3046875, 16177.0078125, 25569.232421875, 53060.73828125, 63917.0234375, 0.07600000500679016, 0.940000057220459, 0.18800000846385956, 192.0, 0.0, 0.0, 0.0, 0.0, 0.0, 0.0, 0.0, 0.0, 0.0, 1.6154772749763696E9, 2021-03-11 16:41:14.976
20.0, 187500.0, 187500.0, 534.7207641601562, -5067.38623046875, 16183.2880859375, 25387.892578125, 52854.41015625, 61703.77734375, 0.07600000500679016, 0.940000057220459, 0.18800000846385956, 192.0, 0.0, 0.0, 0.0, 0.0, 0.0, 0.0, 0.0, 0.0, 0.0, 1.615477274976378E9, 2021-03-11 16:41:14.976
21.0, 187500.0, 187500.0, 687.1820068359375, -4895.166015625, 16473.681640625, 25324.75, 53552.1640625, 61653.05859375, 0.07600000500679016, 0.940000057220459, 0.18800000846385956, 192.0, 0.0, 0.0, 0.0, 0.0, 0.0, 0.0, 0.0, 0.0, 0.0, 1.6154772749763987E9, 2021-03-11 16:41:14.976
22.0, 187500.0, 187500.0, 851.8920288085938, -3858.022705078125, 16630.859375, 25457.16015625, 54215.83203125, 63872.65625, 0.07600000500679016, 0.940000057220459, 0.18800000846385956, 192.0, 0.0, 0.0, 0.0, 0.0, 0.0, 0.0, 0.0, 0.0, 0.0, 1.6154772749764209E9, 2021-03-11 16:41:14.976
23.0, 187500.0, 187500.0, 742.7931518554688, -3415.435791015625, 16435.193359375, 25503.80859375, 53937.6171875, 65358.734375, 0.07600000500679016, 0.940000057220459, 0.18800000846385956, 192.0, 0.0, 0.0, 0.0, 0.0, 0.0, 0.0, 0.0, 0.0, 0.0, 1.6154772749764414E9, 2021-03-11 16:41:14.976
24.0, 187500.0, 187500.0, 590.3765869140625, -4133.21728515625, 16149.5146484375, 25347.302734375, 53103.7421875, 64025.5859375, 0.07600000500679016, 0.940000057220459, 0.18800000846385956, 192.0, 0.0, 0.0, 0.0, 0.0, 0.0, 0.0, 0.0, 0.0, 0.0, 1.6154772749764469E9, 2021-03-11 16:41:14.976
25.0, 187500.0, 187500.0, 607.5203857421875, -5015.35107421875, 16140.1494140625, 25184.357421875, 52905.9296875, 61787.10546875, 0.07600000500679016, 0.940000057220459, 0.18800000846385956, 192.0, 0.0, 0.0, 0.0, 0.0, 0.0, 0.0, 0.0, 0.0, 0.0, 1.6154772749764524E9, 2021-03-11 16:41:14.976
26.0, 187500.0, 187500.0, 725.1129150390625, -4834.97265625, 16392.076171875, 25155.412109375, 53572.703125, 61768.21484375, 0.07600000500679016, 0.940000057220459, 0.18800000846385956, 192.0, 0.0, 0.0, 0.0, 0.0, 0.0, 0.0, 0.0, 0.0, 0.0, 1.6154772749764578E9, 2021-03-11 16:41:14.976
27.0, 187500.0, 187500.0, 932.2688598632812, -3831.20068359375, 16609.22265625, 25316.880859375, 54273.2734375, 63987.43359375, 0.07800000160932541, 0.9280000329017639, 0.18400001525878906, 192.0, 2.0, 112.0, 29.0, 0.0, 5.0, 192.0, 0.0, 0.0, 0.0, 1.6154772749764628E9, 2021-03-11 16:41:14.976
28.0, 187500.0, 187500.0, 822.0300903320312, -3352.470947265625, 16422.294921875, 25271.931640625, 53981.4296875, 65423.64453125, 0.07800000160932541, 0.9280000329017639, 0.18400001525878906, 192.0, 0.0, 0.0, 0.0, 0.0, 0.0, 0.0, 0.0, 0.0, 0.0, 1.6154772749764688E9, 2021-03-11 16:41:14.976
29.0, 187500.0, 187500.0, 498.5780029296875, -4196.115234375, 16033.576171875, 25024.69921875, 53031.65625, 64010.1171875, 0.07800000160932541, 0.9280000329017639, 0.18400001525878906, 192.0, 0.0, 0.0, 0.0, 0.0, 0.0, 0.0, 0.0, 0.0, 0.0, 1.6154772749764733E9, 2021-03-11 16:41:14.976
30.0, 187500.0, 187500.0, 524.4166259765625, -5022.0791015625, 16067.841796875, 24937.908203125, 52898.44140625, 61842.78125, 0.07800000160932541, 0.9280000329017639, 0.18400001525878906, 192.0, 0.0, 0.0, 0.0, 0.0, 0.0, 0.0, 0.0, 0.0, 0.0, 1.6154772749764764E9, 2021-03-11 16:41:14.976
31.0, 187500.0, 187500.0, 764.966064453125, -4813.2021484375, 16304.0771484375, 24968.998046875, 53610.45703125, 61872.890625, 0.07800000160932541, 0.9280000329017639, 0.18400001525878906, 192.0, 0.0, 0.0, 0.0, 0.0, 0.0, 0.0, 0.0, 0.0, 0.0, 1.6154772749764807E9, 2021-03-11 16:41:14.976
32.0, 187500.0, 187500.0, 803.5228271484375, -3870.718505859375, 16413.51171875, 24998.771484375, 54192.5390625, 64055.0, 0.07800000160932541, 0.9280000329017639, 0.18400001525878906, 192.0, 0.0, 0.0, 0.0, 0.0, 0.0, 0.0, 0.0, 0.0, 0.0, 1.6154772749765382E9, 2021-03-11 16:41:14.976
33.0, 187500.0, 187500.0, 547.0588989257812, -3540.873779296875, 16118.4013671875, 24964.7734375, 53781.22265625, 65404.82421875, 0.07800000160932541, 0.9280000329017639, 0.18400001525878906, 192.0, 0.0, 0.0, 0.0, 0.0, 0.0, 0.0, 0.0, 0.0, 0.0, 1.615477274976541E9, 2021-03-11 16:41:14.976
34.0, 187500.0, 187500.0, 536.978271484375, -4329.33154296875, 15936.994140625, 24911.734375, 53026.2265625, 64049.76953125, 0.07800000160932541, 0.9280000329017639, 0.18400001525878906, 192.0, 0.0, 0.0, 0.0, 0.0, 0.0, 0.0, 0.0, 0.0, 0.0, 1.6154772749765449E9, 2021-03-11 16:41:14.976
35.0, 187500.0, 187500.0, 633.135498046875, -5137.52587890625, 15957.0888671875, 24717.2734375, 52944.0625, 61889.87890625, 0.07800000160932541, 0.9280000329017639, 0.18400001525878906, 192.0, 0.0, 0.0, 0.0, 0.0, 0.0, 0.0, 0.0, 0.0, 0.0, 1.615477274976548E9, 2021-03-11 16:41:14.976
36.0, 187500.0, 187500.0, 779.6288452148438, -4860.6103515625, 16176.2255859375, 24683.6796875, 53636.5390625, 61935.296875, 0.07800000160932541, 0.9280000329017639, 0.18400001525878906, 192.0, 0.0, 0.0, 0.0, 0.0, 0.0, 0.0, 0.0, 0.0, 0.0, 1.6154772749765549E9, 2021-03-11 16:41:14.976
37.0, 187500.0, 187500.0, 978.760498046875, -3774.00244140625, 16389.7734375, 24705.44921875, 54282.796875, 64124.203125, 0.06800000369548798, 0.9240000247955322, 0.18400001525878906, 192.0, 2.0, 32.0, 28.0, 224.0, 5.0, 192.0, 0.0, 0.0, 0.0, 1.6154772749765584E9, 2021-03-11 16:41:14.976
38.0, 187500.0, 187500.0, 857.2117309570312, -3314.875244140625, 16176.828125, 24626.81640625, 53977.13671875, 65467.296875, 0.06800000369548798, 0.9240000247955322, 0.18400001525878906, 192.0, 0.0, 0.0, 0.0, 0.0, 0.0, 0.0, 0.0, 0.0, 0.0, 1.6154772749765613E9, 2021-03-11 16:41:14.976
39.0, 187500.0, 187500.0, 568.6506958007812, -4233.263671875, 15827.2470703125, 24460.4296875, 53097.19140625, 64006.87890625, 0.06800000369548798, 0.9240000247955322, 0.18400001525878906, 192.0, 0.0, 0.0, 0.0, 0.0, 0.0, 0.0, 0.0, 0.0, 0.0, 1.6154772749765644E9, 2021-03-11 16:41:14.976
40.0, 187500.0, 187500.0, 649.1616821289062, -5039.0888671875, 15881.271484375, 24371.0, 52969.51953125, 61855.1640625, 0.06800000369548798, 0.9240000247955322, 0.18400001525878906, 192.0, 0.0, 0.0, 0.0, 0.0, 0.0, 0.0, 0.0, 0.0, 0.0, 1.6154772749765675E9, 2021-03-11 16:41:14.976
41.0, 187500.0, 187500.0, 839.1962280273438, -4795.11962890625, 16109.1474609375, 24288.03125, 53655.65234375, 61944.1015625, 0.06800000369548798, 0.9240000247955322, 0.18400001525878906, 192.0, 0.0, 0.0, 0.0, 0.0, 0.0, 0.0, 0.0, 0.0, 0.0, 1.6154772749765704E9, 2021-03-11 16:41:14.976
42.0, 187500.0, 187500.0, 973.5078735351562, -3799.729248046875, 16270.7509765625, 24299.384765625, 54273.25390625, 64144.9453125, 0.06800000369548798, 0.9240000247955322, 0.18400001525878906, 192.0, 0.0, 0.0, 0.0, 0.0, 0.0, 0.0, 0.0, 0.0, 0.0, 1.6154772749765732E9, 2021-03-11 16:41:14.976
43.0, 187500.0, 187500.0, 786.9825439453125, -3415.659423828125, 16038.8515625, 24223.9921875, 53930.35546875, 65470.3125, 0.06800000369548798, 0.9240000247955322, 0.18400001525878906, 192.0, 0.0, 0.0, 0.0, 0.0, 0.0, 0.0, 0.0, 0.0, 0.0, 1.615477274976577E9, 2021-03-11 16:41:14.976
44.0, 187500.0, 187500.0, 515.7664794921875, -4327.72216796875, 15681.3349609375, 24010.779296875, 53073.8359375, 63978.69140625, 0.06800000369548798, 0.9240000247955322, 0.18400001525878906, 192.0, 0.0, 0.0, 0.0, 0.0, 0.0, 0.0, 0.0, 0.0, 0.0, 1.6154772749765816E9, 2021-03-11 16:41:14.976
45.0, 187500.0, 187500.0, 626.3182373046875, -5126.35009765625, 15759.119140625, 23877.541015625, 53020.19140625, 61835.359375, 0.06800000369548798, 0.9240000247955322, 0.18400001525878906, 192.0, 0.0, 0.0, 0.0, 0.0, 0.0, 0.0, 0.0, 0.0, 0.0, 1.6154772749765851E9, 2021-03-11 16:41:14.976
46.0, 187500.0, 187500.0, 821.7618408203125, -4831.9775390625, 16015.158203125, 23738.19921875, 53747.31640625, 61982.90625, 0.06800000369548798, 0.9240000247955322, 0.18400001525878906, 192.0, 0.0, 0.0, 0.0, 0.0, 0.0, 0.0, 0.0, 0.0, 0.0, 1.6154772749765887E9, 2021-03-11 16:41:14.976
47.0, 187500.0, 187500.0, 911.0347290039062, -3871.59033203125, 16139.9482421875, 23689.96484375, 54312.92578125, 64173.28515625, 0.06400000303983688, 0.9240000247955322, 0.1900000125169754, 192.0, 2.0, 0.0, 28.0, 224.0, 5.0, 240.0, 0.0, 0.0, 0.0, 1.6154772749765925E9, 2021-03-11 16:41:14.976
48.0, 187500.0, 187500.0, 797.8678588867188, -3476.18798828125, 15982.5029296875, 23645.6640625, 54021.81640625, 65453.796875, 0.06400000303983688, 0.9240000247955322, 0.1900000125169754, 192.0, 0.0, 0.0, 0.0, 0.0, 0.0, 0.0, 0.0, 0.0, 0.0, 1.615477274976596E9, 2021-03-11 16:41:14.976
49.0, 187500.0, 187500.0, 606.0675048828125, -4281.52099609375, 15689.158203125, 23479.859375, 53211.1640625, 63972.14453125, 0.06400000303983688, 0.9240000247955322, 0.1900000125169754, 192.0, 0.0, 0.0, 0.0, 0.0, 0.0, 0.0, 0.0, 0.0, 0.0, 1.6154772749765992E9, 2021-03-11 16:41:14.976
50.0, 187500.0, 187500.0, 564.2921142578125, -5139.73876953125, 15672.953125, 23301.22265625, 53086.15234375, 61832.9453125, 0.06400000303983688, 0.9240000247955322, 0.1900000125169754, 192.0, 0.0, 0.0, 0.0, 0.0, 0.0, 0.0, 0.0, 0.0, 0.0, 1.6154772749766033E9, 2021-03-11 16:41:14.976
51.0, 187500.0, 187500.0, 826.6121826171875, -4844.09228515625, 15963.6826171875, 23345.814453125, 53814.23828125, 62049.78125, 0.06400000303983688, 0.9240000247955322, 0.1900000125169754, 192.0, 0.0, 0.0, 0.0, 0.0, 0.0, 0.0, 0.0, 0.0, 0.0, 1.6154772749766068E9, 2021-03-11 16:41:14.976
52.0, 187500.0, 187500.0, 968.5904541015625, -3854.35693359375, 16105.4599609375, 23325.498046875, 54379.06640625, 64253.640625, 0.06400000303983688, 0.9240000247955322, 0.1900000125169754, 192.0, 0.0, 0.0, 0.0, 0.0, 0.0, 0.0, 0.0, 0.0, 0.0, 1.6154772749766116E9, 2021-03-11 16:41:14.976
53.0, 187500.0, 187500.0, 739.3062744140625, -3546.14892578125, 15807.2646484375, 23264.388671875, 53958.31640625, 65436.71875, 0.06400000303983688, 0.9240000247955322, 0.1900000125169754, 192.0, 0.0, 0.0, 0.0, 0.0, 0.0, 0.0, 0.0, 0.0, 0.0, 1.6154772749766169E9, 2021-03-11 16:41:14.976
54.0, 187500.0, 187500.0, 572.71875, -4339.30029296875, 15528.9853515625, 23192.28125, 53166.86328125, 63884.74609375, 0.06400000303983688, 0.9240000247955322, 0.1900000125169754, 192.0, 0.0, 0.0, 0.0, 0.0, 0.0, 0.0, 0.0, 0.0, 0.0, 1.6154772749766204E9, 2021-03-11 16:41:14.976
55.0, 187500.0, 187500.0, 661.2539672851562, -5099.86328125, 15582.96484375, 23048.470703125, 53181.79296875, 61801.18359375, 0.06400000303983688, 0.9240000247955322, 0.1900000125169754, 192.0, 0.0, 0.0, 0.0, 0.0, 0.0, 0.0, 0.0, 0.0, 0.0, 1.615477274976624E9, 2021-03-11 16:41:14.976
56.0, 187500.0, 187500.0, 864.8560180664062, -4817.560546875, 15839.294921875, 23029.8515625, 53886.58984375, 62039.3203125, 0.06400000303983688, 0.9240000247955322, 0.1900000125169754, 192.0, 0.0, 0.0, 0.0, 0.0, 0.0, 0.0, 0.0, 0.0, 0.0, 1.615477274976634E9, 2021-03-11 16:41:14.976
57.0, 187500.0, 187500.0, 969.3951416015625, -3760.14453125, 16000.16015625, 23011.03125, 54473.8125, 64285.24609375, 0.06200000271201134, 0.9580000638961792, 0.18800000846385956, 192.0, 1.0, 240.0, 29.0, 240.0, 5.0, 224.0, 0.0, 0.0, 0.0, 1.6154772749766388E9, 2021-03-11 16:41:14.976
58.0, 187500.0, 187500.0, 694.35693359375, -3520.064453125, 15704.357421875, 23015.322265625, 54036.03125, 65422.61328125, 0.06200000271201134, 0.9580000638961792, 0.18800000846385956, 192.0, 0.0, 0.0, 0.0, 0.0, 0.0, 0.0, 0.0, 0.0, 0.0, 1.6154772749766445E9, 2021-03-11 16:41:14.976
59.0, 187500.0, 187500.0, 551.3057861328125, -4393.48095703125, 15454.7998046875, 22931.16796875, 53263.01953125, 63839.59765625, 0.06200000271201134, 0.9580000638961792, 0.18800000846385956, 192.0, 0.0, 0.0, 0.0, 0.0, 0.0, 0.0, 0.0, 0.0, 0.0, 1.6154772749766476E9, 2021-03-11 16:41:14.976
60.0, 187500.0, 187500.0, 663.4444580078125, -5154.021484375, 15530.7509765625, 22809.328125, 53220.75390625, 61806.05859375, 0.06200000271201134, 0.9580000638961792, 0.18800000846385956, 192.0, 0.0, 0.0, 0.0, 0.0, 0.0, 0.0, 0.0, 0.0, 0.0, 1.6154772749766507E9, 2021-03-11 16:41:14.976
61.0, 187500.0, 187500.0, 797.9125366210938, -4824.93701171875, 15774.609375, 22906.87109375, 53913.3671875, 62100.4765625, 0.06200000271201134, 0.9580000638961792, 0.18800000846385956, 192.0, 0.0, 0.0, 0.0, 0.0, 0.0, 0.0, 0.0, 0.0, 0.0, 1.6154772749766536E9, 2021-03-11 16:41:14.976
62.0, 187500.0, 187500.0, 880.45751953125, -3835.626220703125, 15927.1591796875, 22946.9921875, 54470.1953125, 64334.44140625, 0.06200000271201134, 0.9580000638961792, 0.18800000846385956, 192.0, 0.0, 0.0, 0.0, 0.0, 0.0, 0.0, 0.0, 0.0, 0.0, 1.615477274976658E9, 2021-03-11 16:41:14.976
63.0, 187500.0, 187500.0, 789.4635620117188, -3512.911865234375, 15690.455078125, 22824.169921875, 54058.67578125, 65494.98828125, 0.06200000271201134, 0.9580000638961792, 0.18800000846385956, 192.0, 0.0, 0.0, 0.0, 0.0, 0.0, 0.0, 0.0, 0.0, 0.0, 1.6154772749766612E9, 2021-03-11 16:41:14.976
64.0, 187500.0, 187500.0, 466.8608703613281, -4480.3173828125, 15355.2236328125, 22692.361328125, 53213.98046875, 63847.15234375, 0.06200000271201134, 0.9580000638961792, 0.18800000846385956, 192.0, 0.0, 0.0, 0.0, 0.0, 0.0, 0.0, 0.0, 0.0, 0.0, 1.6154772749766643E9, 2021-03-11 16:41:14.976
65.0, 187500.0, 187500.0, 594.2881469726562, -5184.88916015625, 15463.8974609375, 22680.224609375, 53225.2890625, 61812.921875, 0.06200000271201134, 0.9580000638961792, 0.18800000846385956, 192.0, 0.0, 0.0, 0.0, 0.0, 0.0, 0.0, 0.0, 0.0, 0.0, 1.6154772749766672E9, 2021-03-11 16:41:14.976
66.0, 187500.0, 187500.0, 945.322265625, -4770.4658203125, 15864.8427734375, 22779.689453125, 54050.29296875, 62205.5078125, 0.06200000271201134, 0.9580000638961792, 0.18800000846385956, 192.0, 0.0, 0.0, 0.0, 0.0, 0.0, 0.0, 0.0, 0.0, 0.0, 1.6154772749766698E9, 2021-03-11 16:41:14.976
67.0, 187500.0, 187500.0, 1056.723388671875, -3781.490234375, 15996.0029296875, 22861.2734375, 54593.10546875, 64459.76953125, 0.052000001072883606, 0.9540000557899475, 0.18000000715255737, 192.0, 1.0, 160.0, 29.0, 208.0, 5.0, 160.0, 0.0, 0.0, 0.0, 1.615477274976673E9, 2021-03-11 16:41:14.976
68.0, 187500.0, 187500.0, 787.6978149414062, -3510.922607421875, 15715.689453125, 22878.5078125, 54130.4921875, 65556.234375, 0.052000001072883606, 0.9540000557899475, 0.18000000715255737, 192.0, 0.0, 0.0, 0.0, 0.0, 0.0, 0.0, 0.0, 0.0, 0.0, 1.6154772749766762E9, 2021-03-11 16:41:14.976
69.0, 187500.0, 187500.0, 566.9296264648438, -4421.91259765625, 15445.4794921875, 22737.625, 53307.92578125, 63889.1953125, 0.052000001072883606, 0.9540000557899475, 0.18000000715255737, 192.0, 0.0, 0.0, 0.0, 0.0, 0.0, 0.0, 0.0, 0.0, 0.0, 1.6154772749766788E9, 2021-03-11 16:41:14.976
70.0, 187500.0, 187500.0, 691.8982543945312, -5177.28955078125, 15548.744140625, 22662.791015625, 53299.5, 61892.828125, 0.052000001072883606, 0.9540000557899475, 0.18000000715255737, 192.0, 0.0, 0.0, 0.0, 0.0, 0.0, 0.0, 0.0, 0.0, 0.0, 1.6154772749766817E9, 2021-03-11 16:41:14.976
71.0, 187500.0, 187500.0, 900.4623413085938, -4792.28076171875, 15801.185546875, 22709.52734375, 54017.1015625, 62326.875, 0.052000001072883606, 0.9540000557899475, 0.18000000715255737, 192.0, 0.0, 0.0, 0.0, 0.0, 0.0, 0.0, 0.0, 0.0, 0.0, 1.6154772749766843E9, 2021-03-11 16:41:14.976
72.0, 187500.0, 187500.0, 985.5777587890625, -3798.142333984375, 15965.716796875, 22798.689453125, 54527.703125, 64607.22265625, 0.052000001072883606, 0.9540000557899475, 0.18000000715255737, 192.0, 0.0, 0.0, 0.0, 0.0, 0.0, 0.0, 0.0, 0.0, 0.0, 1.6154772749766872E9, 2021-03-11 16:41:14.976
73.0, 187500.0, 187500.0, 884.2349853515625, -3457.79248046875, 15776.4638671875, 22860.89453125, 54130.625, 65684.578125, 0.052000001072883606, 0.9540000557899475, 0.18000000715255737, 192.0, 0.0, 0.0, 0.0, 0.0, 0.0, 0.0, 0.0, 0.0, 0.0, 1.6154772749766908E9, 2021-03-11 16:41:14.976
74.0, 187500.0, 187500.0, 683.806884765625, -4380.0029296875, 15494.1396484375, 22720.681640625, 53338.234375, 63957.27734375, 0.052000001072883606, 0.9540000557899475, 0.18000000715255737, 192.0, 0.0, 0.0, 0.0, 0.0, 0.0, 0.0, 0.0, 0.0, 0.0, 1.6154772749766943E9, 2021-03-11 16:41:14.976
75.0, 187500.0, 187500.0, 661.2987060546875, -5194.388671875, 15521.5205078125, 22654.900390625, 53326.9453125, 61937.8203125, 0.052000001072883606, 0.9540000557899475, 0.18000000715255737, 192.0, 0.0, 0.0, 0.0, 0.0, 0.0, 0.0, 0.0, 0.0, 0.0, 1.6154772749766974E9, 2021-03-11 16:41:14.976
76.0, 187500.0, 187500.0, 819.9513549804688, -4854.28466796875, 15772.798828125, 22691.556640625, 54016.65234375, 62406.44921875, 0.052000001072883606, 0.9540000557899475, 0.18000000715255737, 192.0, 0.0, 0.0, 0.0, 0.0, 0.0, 0.0, 0.0, 0.0, 0.0, 1.6154772749767003E9, 2021-03-11 16:41:14.976
77.0, 187500.0, 187500.0, 874.914306640625, -3883.414306640625, 15898.9736328125, 22752.376953125, 54494.71484375, 64674.5703125, 0.05400000140070915, 0.9620000720024109, 0.16600000858306885, 192.0, 1.0, 176.0, 30.0, 16.0, 5.0, 48.0, 0.0, 0.0, 0.0, 1.6154772749767044E9, 2021-03-11 16:41:14.976
78.0, 187500.0, 187500.0, 784.0991821289062, -3540.11376953125, 15714.080078125, 22761.0703125, 54118.890625, 65712.40625, 0.05400000140070915, 0.9620000720024109, 0.16600000858306885, 192.0, 0.0, 0.0, 0.0, 0.0, 0.0, 0.0, 0.0, 0.0, 0.0, 1.6154772749767072E9, 2021-03-11 16:41:14.976
79.0, 187500.0, 187500.0, 649.9440307617188, -4459.8212890625, 15449.7265625, 22749.068359375, 53390.6953125, 63976.234375, 0.05400000140070915, 0.9620000720024109, 0.16600000858306885, 192.0, 0.0, 0.0, 0.0, 0.0, 0.0, 0.0, 0.0, 0.0, 0.0, 1.6154772749767134E9, 2021-03-11 16:41:14.976
80.0, 187500.0, 187500.0, 666.4843139648438, -5161.95654296875, 15502.677734375, 22735.568359375, 53405.109375, 62030.3125, 0.05400000140070915, 0.9620000720024109, 0.16600000858306885, 192.0, 0.0, 0.0, 0.0, 0.0, 0.0, 0.0, 0.0, 0.0, 0.0, 1.615477274976716E9, 2021-03-11 16:41:14.976
81.0, 187500.0, 187500.0, 849.0086059570312, -4811.01171875, 15793.7197265625, 22690.529296875, 54124.859375, 62538.4140625, 0.05400000140070915, 0.9620000720024109, 0.16600000858306885, 192.0, 0.0, 0.0, 0.0, 0.0, 0.0, 0.0, 0.0, 0.0, 0.0, 1.615477274976719E9, 2021-03-11 16:41:14.976
82.0, 187500.0, 187500.0, 968.7245483398438, -3846.55615234375, 15939.162109375, 22724.548828125, 54614.5625, 64801.078125, 0.05400000140070915, 0.9620000720024109, 0.16600000858306885, 192.0, 0.0, 0.0, 0.0, 0.0, 0.0, 0.0, 0.0, 0.0, 0.0, 1.615477274976722E9, 2021-03-11 16:41:14.976
83.0, 187500.0, 187500.0, 830.7919311523438, -3497.57861328125, 15705.6318359375, 22756.82421875, 54143.3671875, 65781.453125, 0.05400000140070915, 0.9620000720024109, 0.16600000858306885, 192.0, 0.0, 0.0, 0.0, 0.0, 0.0, 0.0, 0.0, 0.0, 0.0, 1.6154772749767256E9, 2021-03-11 16:41:14.976
84.0, 187500.0, 187500.0, 577.01025390625, -4482.01611328125, 15380.5927734375, 22717.1953125, 53343.95703125, 63986.55859375, 0.05400000140070915, 0.9620000720024109, 0.16600000858306885, 192.0, 0.0, 0.0, 0.0, 0.0, 0.0, 0.0, 0.0, 0.0, 0.0, 1.615477274976729E9, 2021-03-11 16:41:14.976
85.0, 187500.0, 187500.0, 598.3785400390625, -5257.3984375, 15453.0791015625, 22685.052734375, 53395.8359375, 62044.9296875, 0.05400000140070915, 0.9620000720024109, 0.16600000858306885, 192.0, 0.0, 0.0, 0.0, 0.0, 0.0, 0.0, 0.0, 0.0, 0.0, 1.6154772749767315E9, 2021-03-11 16:41:14.976
86.0, 187500.0, 187500.0, 790.0, -4873.88720703125, 15736.8349609375, 22798.15234375, 54128.8828125, 62607.79296875, 0.05400000140070915, 0.9620000720024109, 0.16600000858306885, 192.0, 0.0, 0.0, 0.0, 0.0, 0.0, 0.0, 0.0, 0.0, 0.0, 1.615477274976735E9, 2021-03-11 16:41:14.976
87.0, 187500.0, 187500.0, 989.0870361328125, -3831.848876953125, 15928.791015625, 22739.27734375, 54627.1015625, 64888.65234375, 0.052000001072883606, 0.9580000638961792, 0.1600000113248825, 192.0, 1.0, 160.0, 29.0, 240.0, 5.0, 0.0, 0.0, 0.0, 0.0, 1.6154772749767375E9, 2021-03-11 16:41:14.976
88.0, 187500.0, 187500.0, 784.8367919921875, -3564.70068359375, 15647.5390625, 22815.85546875, 54144.68359375, 65810.796875, 0.052000001072883606, 0.9580000638961792, 0.1600000113248825, 192.0, 0.0, 0.0, 0.0, 0.0, 0.0, 0.0, 0.0, 0.0, 0.0, 1.615477274976742E9, 2021-03-11 16:41:14.976
89.0, 187500.0, 187500.0, 572.4281616210938, -4562.25927734375, 15367.1142578125, 22741.982421875, 53371.44921875, 63993.64453125, 0.052000001072883606, 0.9580000638961792, 0.1600000113248825, 192.0, 0.0, 0.0, 0.0, 0.0, 0.0, 0.0, 0.0, 0.0, 0.0, 1.6154772749767458E9, 2021-03-11 16:41:14.976
90.0, 187500.0, 187500.0, 593.1705932617188, -5280.1298828125, 15443.333984375, 22685.947265625, 53419.52734375, 62069.0703125, 0.052000001072883606, 0.9580000638961792, 0.1600000113248825, 192.0, 0.0, 0.0, 0.0, 0.0, 0.0, 0.0, 0.0, 0.0, 0.0, 1.6154772749767497E9, 2021-03-11 16:41:14.976
91.0, 187500.0, 187500.0, 780.0087890625, -4791.2529296875, 15753.375, 22781.814453125, 54217.88671875, 62706.1640625, 0.052000001072883606, 0.9580000638961792, 0.1600000113248825, 192.0, 0.0, 0.0, 0.0, 0.0, 0.0, 0.0, 0.0, 0.0, 0.0, 1.6154772749767544E9, 2021-03-11 16:41:14.976
92.0, 187500.0, 187500.0, 900.5070190429688, -3877.2451171875, 15877.7841796875, 22762.63671875, 54652.58203125, 64952.3359375, 0.052000001072883606, 0.9580000638961792, 0.1600000113248825, 192.0, 0.0, 0.0, 0.0, 0.0, 0.0, 0.0, 0.0, 0.0, 0.0, 1.6154772749767573E9, 2021-03-11 16:41:14.976
93.0, 187500.0, 187500.0, 734.5676879882812, -3693.5361328125, 15624.1142578125, 22800.41015625, 54162.0078125, 65828.4296875, 0.052000001072883606, 0.9580000638961792, 0.1600000113248825, 192.0, 0.0, 0.0, 0.0, 0.0, 0.0, 0.0, 0.0, 0.0, 0.0, 1.61547727497676E9, 2021-03-11 16:41:14.976
94.0, 187500.0, 187500.0, 573.2551879882812, -4528.44091796875, 15371.115234375, 22825.689453125, 53417.515625, 64011.19140625, 0.052000001072883606, 0.9580000638961792, 0.1600000113248825, 192.0, 0.0, 0.0, 0.0, 0.0, 0.0, 0.0, 0.0, 0.0, 0.0, 1.6154772749767628E9, 2021-03-11 16:41:14.976
95.0, 187500.0, 187500.0, 648.9605102539062, -5229.70458984375, 15487.0986328125, 22731.9921875, 53498.5625, 62129.15234375, 0.052000001072883606, 0.9580000638961792, 0.1600000113248825, 192.0, 0.0, 0.0, 0.0, 0.0, 0.0, 0.0, 0.0, 0.0, 0.0, 1.615477274976766E9, 2021-03-11 16:41:14.976
96.0, 187500.0, 187500.0, 893.197998046875, -4755.93701171875, 15797.0498046875, 22761.40625, 54259.5078125, 62780.078125, 0.052000001072883606, 0.9580000638961792, 0.1600000113248825, 192.0, 0.0, 0.0, 0.0, 0.0, 0.0, 0.0, 0.0, 0.0, 0.0, 1.6154772749767692E9, 2021-03-11 16:41:14.976
97.0, 187500.0, 187500.0, 946.171630859375, -3687.814208984375, 15936.2568359375, 22856.736328125, 54720.19921875, 65059.6015625, 0.05400000140070915, 0.9540000557899475, 0.15400001406669617, 192.0, 1.0, 176.0, 29.0, 208.0, 4.0, 208.0, 0.0, 0.0, 0.0, 1.6154772749767723E9, 2021-03-11 16:41:14.976
98.0, 187500.0, 187500.0, 660.6281127929688, -3611.728759765625, 15578.673828125, 22863.107421875, 54150.02734375, 65851.546875, 0.05400000140070915, 0.9540000557899475, 0.15400001406669617, 192.0, 0.0, 0.0, 0.0, 0.0, 0.0, 0.0, 0.0, 0.0, 0.0, 1.6154772749767752E9, 2021-03-11 16:41:14.976
99.0, 187500.0, 187500.0, 496.2981262207031, -4646.79345703125, 15330.748046875, 22865.005859375, 53371.91796875, 63966.9140625, 0.05400000140070915, 0.9540000557899475, 0.15400001406669617, 192.0, 0.0, 0.0, 0.0, 0.0, 0.0, 0.0, 0.0, 0.0, 0.0, 1.6154772749767785E9, 2021-03-11 16:41:14.976
100.0, 187500.0, 187500.0, 592.8353271484375, -5297.89990234375, 15466.1552734375, 22886.59765625, 53506.6328125, 62151.01171875, 0.05400000140070915, 0.9540000557899475, 0.15400001406669617, 192.0, 0.0, 0.0, 0.0, 0.0, 0.0, 0.0, 0.0, 0.0, 0.0, 1.6154772749767816E9, 2021-03-11 16:41:14.976
101.0, 187500.0, 187500.0, 860.519775390625, -4856.63134765625, 15788.220703125, 22928.28515625, 54285.27734375, 62861.12890625, 0.05400000140070915, 0.9540000557899475, 0.15400001406669617, 192.0, 0.0, 0.0, 0.0, 0.0, 0.0, 0.0, 0.0, 0.0, 0.0, 1.6154772749767845E9, 2021-03-11 16:41:14.976
102.0, 187500.0, 187500.0, 992.260986328125, -3672.68212890625, 15952.193359375, 22861.2734375, 54746.484375, 65161.63671875, 0.05400000140070915, 0.9540000557899475, 0.15400001406669617, 192.0, 0.0, 0.0, 0.0, 0.0, 0.0, 0.0, 0.0, 0.0, 0.0, 1.6154772749767895E9, 2021-03-11 16:41:14.976
103.0, 187500.0, 187500.0, 705.2645874023438, -3493.15283203125, 15633.1669921875, 22844.443359375, 54187.2421875, 65937.953125, 0.05400000140070915, 0.9540000557899475, 0.15400001406669617, 192.0, 0.0, 0.0, 0.0, 0.0, 0.0, 0.0, 0.0, 0.0, 0.0, 1.6154772749767935E9, 2021-03-11 16:41:14.976
104.0, 187500.0, 187500.0, 538.5429077148438, -4563.97998046875, 15381.419921875, 22870.70703125, 53454.21875, 64061.796875, 0.05400000140070915, 0.9540000557899475, 0.15400001406669617, 192.0, 0.0, 0.0, 0.0, 0.0, 0.0, 0.0, 0.0, 0.0, 0.0, 1.615477274976801E9, 2021-03-11 16:41:14.976
105.0, 187500.0, 187500.0, 649.3851928710938, -5213.41015625, 15515.8203125, 22884.18359375, 53565.9296875, 62235.97265625, 0.05400000140070915, 0.9540000557899475, 0.15400001406669617, 192.0, 0.0, 0.0, 0.0, 0.0, 0.0, 0.0, 0.0, 0.0, 0.0, 1.6154772749768038E9, 2021-03-11 16:41:14.976
106.0, 187500.0, 187500.0, 825.4722290039062, -4664.65234375, 15847.7890625, 22891.60546875, 54307.0703125, 62966.89453125, 0.0560000017285347, 0.9500000476837158, 0.15000000596046448, 192.0, 1.0, 192.0, 29.0, 176.0, 4.0, 176.0, 0.0, 0.0, 0.0, 1.6154772749768128E9, 2021-03-11 16:41:14.976
107.0, 187500.0, 187500.0, 736.4675903320312, -3778.763427734375, 15865.4013671875, 22832.484375, 54692.19140625, 65210.7890625, 0.0560000017285347, 0.9500000476837158, 0.15000000596046448, 192.0, 0.0, 0.0, 0.0, 0.0, 0.0, 0.0, 0.0, 0.0, 0.0, 1.6154772749768174E9, 2021-03-11 16:41:14.976
108.0, 187500.0, 187500.0, 567.42138671875, -3675.25244140625, 15666.515625, 23027.90625, 54216.92578125, 65989.4765625, 0.0560000017285347, 0.9500000476837158, 0.15000000596046448, 192.0, 0.0, 0.0, 0.0, 0.0, 0.0, 0.0, 0.0, 0.0, 0.0, 1.615477274976821E9, 2021-03-11 16:41:14.976
109.0, 187500.0, 187500.0, 439.0552978515625, -4710.205078125, 15440.2265625, 22997.150390625, 53509.26953125, 64046.44140625, 0.0560000017285347, 0.9500000476837158, 0.15000000596046448, 192.0, 0.0, 0.0, 0.0, 0.0, 0.0, 0.0, 0.0, 0.0, 0.0, 1.6154772749768252E9, 2021-03-11 16:41:14.976
110.0, 187500.0, 187500.0, 641.875, -5335.5849609375, 15640.23046875, 22962.259765625, 53646.15234375, 62250.6328125, 0.0560000017285347, 0.9500000476837158, 0.15000000596046448, 192.0, 0.0, 0.0, 0.0, 0.0, 0.0, 0.0, 0.0, 0.0, 0.0, 1.6154772749768293E9, 2021-03-11 16:41:14.976
111.0, 187500.0, 187500.0, 959.5827026367188, -4689.0380859375, 16006.083984375, 23061.0546875, 54444.0859375, 63081.046875, 0.0560000017285347, 0.9500000476837158, 0.15000000596046448, 192.0, 0.0, 0.0, 0.0, 0.0, 0.0, 0.0, 0.0, 0.0, 0.0, 1.6154772749768345E9, 2021-03-11 16:41:14.976
112.0, 187500.0, 187500.0, 938.5944213867188, -3595.143798828125, 16080.42578125, 22999.296875, 54823.3515625, 65346.015625, 0.0560000017285347, 0.9500000476837158, 0.15000000596046448, 192.0, 0.0, 0.0, 0.0, 0.0, 0.0, 0.0, 0.0, 0.0, 0.0, 1.615477274976847E9, 2021-03-11 16:41:14.976
113.0, 187500.0, 187500.0, 629.1568603515625, -3555.2236328125, 15786.6787109375, 22922.115234375, 54233.53125, 65992.046875, 0.0560000017285347, 0.9500000476837158, 0.15000000596046448, 192.0, 0.0, 0.0, 0.0, 0.0, 0.0, 0.0, 0.0, 0.0, 0.0, 1.6154772749768524E9, 2021-03-11 16:41:14.976
114.0, 187500.0, 187500.0, 443.726806640625, -4642.6806640625, 15514.6357421875, 23003.900390625, 53556.8125, 64035.890625, 0.0560000017285347, 0.9500000476837158, 0.15000000596046448, 192.0, 0.0, 0.0, 0.0, 0.0, 0.0, 0.0, 0.0, 0.0, 0.0, 1.61547727497686E9, 2021-03-11 16:41:14.976
115.0, 187500.0, 187500.0, 583.7828369140625, -5262.91943359375, 15682.6982421875, 23099.54296875, 53733.61328125, 62284.5625, 0.0560000017285347, 0.9500000476837158, 0.15000000596046448, 192.0, 0.0, 0.0, 0.0, 0.0, 0.0, 0.0, 0.0, 0.0, 0.0, 1.6154772749768748E9, 2021-03-11 16:41:14.976
116.0, 187500.0, 187500.0, 980.0345458984375, -4626.7216796875, 16097.501953125, 23217.404296875, 54580.4765625, 63144.99609375, 0.06400000303983688, 0.956000030040741, 0.15400001406669617, 192.0, 2.0, 0.0, 29.0, 224.0, 4.0, 208.0, 0.0, 0.0, 0.0, 1.615477274976886E9, 2021-03-11 16:41:14.976
117.0, 187500.0, 187500.0, 976.3241577148438, -3628.559814453125, 16149.8720703125, 23141.296875, 54931.17578125, 65368.41015625, 0.06400000303983688, 0.956000030040741, 0.15400001406669617, 192.0, 0.0, 0.0, 0.0, 0.0, 0.0, 0.0, 0.0, 0.0, 0.0, 1.6154772749768963E9, 2021-03-11 16:41:14.976
118.0, 187500.0, 187500.0, 679.8953247070312, -3614.254638671875, 15830.6220703125, 23194.494140625, 54333.0859375, 65988.8984375, 0.06400000303983688, 0.956000030040741, 0.15400001406669617, 192.0, 0.0, 0.0, 0.0, 0.0, 0.0, 0.0, 0.0, 0.0, 0.0, 1.615477274976904E9, 2021-03-11 16:41:14.976
119.0, 187500.0, 187500.0, 410.10980224609375, -4704.2373046875, 15537.2783203125, 23142.19140625, 53559.4921875, 63975.49609375, 0.06400000303983688, 0.956000030040741, 0.15400001406669617, 192.0, 0.0, 0.0, 0.0, 0.0, 0.0, 0.0, 0.0, 0.0, 0.0, 1.6154772749769087E9, 2021-03-11 16:41:14.976
120.0, 187500.0, 187500.0, 538.9675903320312, -5209.9677734375, 15716.29296875, 23177.88671875, 53835.26953125, 62287.8046875, 0.06400000303983688, 0.956000030040741, 0.15400001406669617, 192.0, 0.0, 0.0, 0.0, 0.0, 0.0, 0.0, 0.0, 0.0, 0.0, 1.6154772749769125E9, 2021-03-11 16:41:14.976
121.0, 187500.0, 187500.0, 835.9775390625, -4683.60693359375, 16097.2568359375, 23210.296875, 54669.125, 63137.44140625, 0.06400000303983688, 0.956000030040741, 0.15400001406669617, 192.0, 0.0, 0.0, 0.0, 0.0, 0.0, 0.0, 0.0, 0.0, 0.0, 1.6154772749769235E9, 2021-03-11 16:41:14.976
122.0, 187500.0, 187500.0, 988.4835205078125, -3674.984375, 16239.9052734375, 23271.18359375, 55090.609375, 65396.3515625, 0.06400000303983688, 0.956000030040741, 0.15400001406669617, 192.0, 0.0, 0.0, 0.0, 0.0, 0.0, 0.0, 0.0, 0.0, 0.0, 1.6154772749769328E9, 2021-03-11 16:41:14.976
123.0, 187500.0, 187500.0, 726.3646240234375, -3590.89697265625, 15913.994140625, 23233.7890625, 54574.30859375, 66021.890625, 0.06400000303983688, 0.956000030040741, 0.15400001406669617, 192.0, 0.0, 0.0, 0.0, 0.0, 0.0, 0.0, 0.0, 0.0, 0.0, 1.6154772749769392E9, 2021-03-11 16:41:14.976
124.0, 187500.0, 187500.0, 475.7568664550781, -4619.59130859375, 15656.0556640625, 23198.13671875, 53935.47265625, 64046.23828125, 0.06400000303983688, 0.956000030040741, 0.15400001406669617, 192.0, 0.0, 0.0, 0.0, 0.0, 0.0, 0.0, 0.0, 0.0, 0.0, 1.615477274976946E9, 2021-03-11 16:41:14.976
125.0, 187500.0, 187500.0, 485.1893005371094, -5307.1083984375, 15729.1005859375, 23109.333984375, 54111.40234375, 62308.97265625, 0.06400000303983688, 0.956000030040741, 0.15400001406669617, 192.0, 0.0, 0.0, 0.0, 0.0, 0.0, 0.0, 0.0, 0.0, 0.0, 1.6154772749769769E9, 2021-03-11 16:41:14.976
126.0, 187500.0, 187500.0, 910.0288696289062, -4655.80126953125, 16156.2646484375, 23328.0, 54985.9609375, 63226.9140625, 0.06200000271201134, 0.940000057220459, 0.15600000321865082, 192.0, 1.0, 240.0, 29.0, 96.0, 4.0, 224.0, 0.0, 0.0, 0.0, 1.61547727497699E9, 2021-03-11 16:41:14.976
127.0, 187500.0, 187500.0, 995.703125, -3611.863037109375, 16248.0634765625, 23308.353515625, 55383.796875, 65455.94140625, 0.06200000271201134, 0.940000057220459, 0.15600000321865082, 192.0, 0.0, 0.0, 0.0, 0.0, 0.0, 0.0, 0.0, 0.0, 0.0, 1.6154772749769976E9, 2021-03-11 16:41:14.976
128.0, 187500.0, 187500.0, 714.898193359375, -3632.06884765625, 15879.1259765625, 23252.33984375, 54761.75, 65983.796875, 0.06200000271201134, 0.940000057220459, 0.15600000321865082, 192.0, 0.0, 0.0, 0.0, 0.0, 0.0, 0.0, 0.0, 0.0, 0.0, 1.6154772749770083E9, 2021-03-11 16:41:14.977
129.0, 187500.0, 187500.0, 615.7681884765625, -4621.5361328125, 15694.03125, 23284.52734375, 54116.6796875, 64027.53125, 0.06200000271201134, 0.940000057220459, 0.15600000321865082, 192.0, 0.0, 0.0, 0.0, 0.0, 0.0, 0.0, 0.0, 0.0, 0.0, 1.615477274977024E9, 2021-03-11 16:41:14.977
130.0, 187500.0, 187500.0, 725.090576171875, -5168.5947265625, 15833.0361328125, 23317.2265625, 54355.88671875, 62389.1015625, 0.06200000271201134, 0.940000057220459, 0.15600000321865082, 192.0, 0.0, 0.0, 0.0, 0.0, 0.0, 0.0, 0.0, 0.0, 0.0, 1.6154772749770467E9, 2021-03-11 16:41:14.977
131.0, 187500.0, 187500.0, 881.7315673828125, -4641.65234375, 16071.57421875, 23324.669921875, 55050.421875, 63257.9140625, 0.06200000271201134, 0.940000057220459, 0.15600000321865082, 192.0, 0.0, 0.0, 0.0, 0.0, 0.0, 0.0, 0.0, 0.0, 0.0, 1.6154772749770613E9, 2021-03-11 16:41:14.977
132.0, 187500.0, 187500.0, 936.180419921875, -3684.126220703125, 16142.138671875, 23270.333984375, 55384.84765625, 65445.81640625, 0.06200000271201134, 0.940000057220459, 0.15600000321865082, 192.0, 0.0, 0.0, 0.0, 0.0, 0.0, 0.0, 0.0, 0.0, 0.0, 1.6154772749770677E9, 2021-03-11 16:41:14.977
133.0, 187500.0, 187500.0, 696.9944458007812, -3628.716064453125, 15834.9365234375, 23242.55078125, 54818.74609375, 65979.8203125, 0.06200000271201134, 0.940000057220459, 0.15600000321865082, 192.0, 0.0, 0.0, 0.0, 0.0, 0.0, 0.0, 0.0, 0.0, 0.0, 1.6154772754564009E9, 2021-03-11 16:41:15.456
134.0, 187500.0, 187500.0, 557.9889526367188, -4631.19189453125, 15634.91015625, 23332.740234375, 54174.9921875, 63996.68359375, 0.06200000271201134, 0.940000057220459, 0.15600000321865082, 192.0, 0.0, 0.0, 0.0, 0.0, 0.0, 0.0, 0.0, 0.0, 0.0, 1.6154772754565153E9, 2021-03-11 16:41:15.456
135.0, 187500.0, 187500.0, 685.5950317382812, -5263.544921875, 15761.734375, 23309.494140625, 54342.54296875, 62321.04296875, 0.06200000271201134, 0.940000057220459, 0.15600000321865082, 192.0, 0.0, 0.0, 0.0, 0.0, 0.0, 0.0, 0.0, 0.0, 0.0, 1.6154772754565892E9, 2021-03-11 16:41:15.456
136.0, 187500.0, 187500.0, 842.28076171875, -4723.57177734375, 16001.859375, 23323.462890625, 55010.0546875, 63215.84765625, 0.06200000271201134, 0.9480000734329224, 0.15600000321865082, 192.0, 1.0, 240.0, 29.0, 160.0, 4.0, 224.0, 0.0, 0.0, 0.0, 1.615477275456606E9, 2021-03-11 16:41:15.456
137.0, 187500.0, 187500.0, 891.9239501953125, -3750.935546875, 16086.2373046875, 23301.021484375, 55362.65234375, 65429.3203125, 0.06200000271201134, 0.9480000734329224, 0.15600000321865082, 192.0, 0.0, 0.0, 0.0, 0.0, 0.0, 0.0, 0.0, 0.0, 0.0, 1.6154772754566088E9, 2021-03-11 16:41:15.456
138.0, 187500.0, 187500.0, 690.400634765625, -3750.957763671875, 15802.0341796875, 23310.365234375, 54801.9140625, 65914.0390625, 0.06200000271201134, 0.9480000734329224, 0.15600000321865082, 192.0, 0.0, 0.0, 0.0, 0.0, 0.0, 0.0, 0.0, 0.0, 0.0, 1.6154772754566116E9, 2021-03-11 16:41:15.456
139.0, 187500.0, 187500.0, 569.3212890625, -4696.52587890625, 15589.4248046875, 23307.4140625, 54183.64453125, 63927.953125, 0.06200000271201134, 0.9480000734329224, 0.15600000321865082, 192.0, 0.0, 0.0, 0.0, 0.0, 0.0, 0.0, 0.0, 0.0, 0.0, 1.615477275456614E9, 2021-03-11 16:41:15.456
140.0, 187500.0, 187500.0, 534.2737426757812, -5354.5166015625, 15630.7978515625, 23229.720703125, 54312.30078125, 62283.40234375, 0.06200000271201134, 0.9480000734329224, 0.15600000321865082, 192.0, 0.0, 0.0, 0.0, 0.0, 0.0, 0.0, 0.0, 0.0, 0.0, 1.615477275456617E9, 2021-03-11 16:41:15.456
141.0, 187500.0, 187500.0, 829.1826171875, -4737.36279296875, 15969.44921875, 23337.478515625, 55081.06640625, 63281.69921875, 0.06200000271201134, 0.9480000734329224, 0.15600000321865082, 192.0, 0.0, 0.0, 0.0, 0.0, 0.0, 0.0, 0.0, 0.0, 0.0, 1.6154772754566197E9, 2021-03-11 16:41:15.456
142.0, 187500.0, 187500.0, 988.3941040039062, -3618.9931640625, 16109.7509765625, 23350.28515625, 55421.10546875, 65511.41796875, 0.06200000271201134, 0.9480000734329224, 0.15600000321865082, 192.0, 0.0, 0.0, 0.0, 0.0, 0.0, 0.0, 0.0, 0.0, 0.0, 1.6154772754566224E9, 2021-03-11 16:41:15.456
143.0, 187500.0, 187500.0, 658.2365112304688, -3617.09326171875, 15728.1396484375, 23300.015625, 54718.1875, 65914.421875, 0.06200000271201134, 0.9480000734329224, 0.15600000321865082, 192.0, 0.0, 0.0, 0.0, 0.0, 0.0, 0.0, 0.0, 0.0, 0.0, 1.6154772754566255E9, 2021-03-11 16:41:15.456
144.0, 187500.0, 187500.0, 462.88226318359375, -4774.31005859375, 15442.5068359375, 23303.7265625, 54001.12109375, 63860.69921875, 0.06200000271201134, 0.9480000734329224, 0.15600000321865082, 192.0, 0.0, 0.0, 0.0, 0.0, 0.0, 0.0, 0.0, 0.0, 0.0, 1.6154772754566283E9, 2021-03-11 16:41:15.456
145.0, 187500.0, 187500.0, 665.612548828125, -5331.44970703125, 15639.873046875, 23372.369140625, 54211.80859375, 62297.171875, 0.06200000271201134, 0.9480000734329224, 0.15600000321865082, 192.0, 0.0, 0.0, 0.0, 0.0, 0.0, 0.0, 0.0, 0.0, 0.0, 1.6154772754566312E9, 2021-03-11 16:41:15.456
146.0, 187500.0, 187500.0, 833.3624267578125, -4613.8916015625, 15845.330078125, 23301.826171875, 54961.73046875, 63313.4375, 0.06400000303983688, 0.9540000557899475, 0.15600000321865082, 192.0, 2.0, 0.0, 29.0, 208.0, 4.0, 224.0, 0.0, 0.0, 0.0, 1.6154772754566338E9, 2021-03-11 16:41:15.456
147.0, 187500.0, 187500.0, 883.8326416015625, -3691.3681640625, 15905.5009765625, 23300.240234375, 55341.0859375, 65484.0390625, 0.06400000303983688, 0.9540000557899475, 0.15600000321865082, 192.0, 0.0, 0.0, 0.0, 0.0, 0.0, 0.0, 0.0, 0.0, 0.0, 1.6154772754566364E9, 2021-03-11 16:41:15.456
148.0, 187500.0, 187500.0, 763.2449951171875, -3631.621826171875, 15636.251953125, 23339.66796875, 54821.8984375, 65884.359375, 0.06400000303983688, 0.9540000557899475, 0.15600000321865082, 192.0, 0.0, 0.0, 0.0, 0.0, 0.0, 0.0, 0.0, 0.0, 0.0, 1.6154772754566395E9, 2021-03-11 16:41:15.456
149.0, 187500.0, 187500.0, 544.7119750976562, -4671.76025390625, 15360.4091796875, 23285.95703125, 54216.96875, 63857.0078125, 0.06400000303983688, 0.9540000557899475, 0.15600000321865082, 192.0, 0.0, 0.0, 0.0, 0.0, 0.0, 0.0, 0.0, 0.0, 0.0, 1.6154772754566462E9, 2021-03-11 16:41:15.456
150.0, 187500.0, 187500.0, 607.2074584960938, -5285.89697265625, 15449.369140625, 23295.880859375, 54399.875, 62325.33203125, 0.06400000303983688, 0.9540000557899475, 0.15600000321865082, 192.0, 0.0, 0.0, 0.0, 0.0, 0.0, 0.0, 0.0, 0.0, 0.0, 1.6154772754566488E9, 2021-03-11 16:41:15.456
151.0, 187500.0, 187500.0, 874.8025512695312, -4657.25390625, 15772.3740234375, 23385.466796875, 55132.7421875, 63389.34375, 0.06400000303983688, 0.9540000557899475, 0.15600000321865082, 192.0, 0.0, 0.0, 0.0, 0.0, 0.0, 0.0, 0.0, 0.0, 0.0, 1.6154772754566517E9, 2021-03-11 16:41:15.456
152.0, 187500.0, 187500.0, 909.3583374023438, -3678.918212890625, 15856.55078125, 23286.740234375, 55403.35546875, 65536.1640625, 0.06400000303983688, 0.9540000557899475, 0.15600000321865082, 192.0, 0.0, 0.0, 0.0, 0.0, 0.0, 0.0, 0.0, 0.0, 0.0, 1.6154772754566548E9, 2021-03-11 16:41:15.456
153.0, 187500.0, 187500.0, 551.171630859375, -3884.598876953125, 15423.7763671875, 23232.669921875, 54689.41796875, 65813.546875, 0.06400000303983688, 0.9540000557899475, 0.15600000321865082, 192.0, 0.0, 0.0, 0.0, 0.0, 0.0, 0.0, 0.0, 0.0, 0.0, 1.6154772754566574E9, 2021-03-11 16:41:15.456
154.0, 187500.0, 187500.0, 422.9620361328125, -4889.376953125, 15258.9541015625, 23326.861328125, 53987.93359375, 63754.7265625, 0.06400000303983688, 0.9540000557899475, 0.15600000321865082, 192.0, 0.0, 0.0, 0.0, 0.0, 0.0, 0.0, 0.0, 0.0, 0.0, 1.6154772754566603E9, 2021-03-11 16:41:15.456
155.0, 187500.0, 187500.0, 645.7642211914062, -5362.04931640625, 15523.0625, 23371.7421875, 54188.875, 62288.20703125, 0.06400000303983688, 0.9540000557899475, 0.15600000321865082, 192.0, 0.0, 0.0, 0.0, 0.0, 0.0, 0.0, 0.0, 0.0, 0.0, 1.6154772754566631E9, 2021-03-11 16:41:15.456
156.0, 187500.0, 187500.0, 849.6121215820312, -4680.18701171875, 15764.1259765625, 23470.650390625, 54853.9296875, 63412.8125, 0.06200000271201134, 0.9820000529289246, 0.15000000596046448, 192.0, 1.0, 240.0, 30.0, 176.0, 4.0, 176.0, 0.0, 0.0, 0.0, 1.615477275456666E9, 2021-03-11 16:41:15.456
157.0, 187500.0, 187500.0, 826.0980834960938, -3644.943603515625, 15789.2939453125, 23433.099609375, 55127.3125, 65624.71875, 0.06200000271201134, 0.9820000529289246, 0.15000000596046448, 192.0, 0.0, 0.0, 0.0, 0.0, 0.0, 0.0, 0.0, 0.0, 0.0, 1.6154772754566689E9, 2021-03-11 16:41:15.456
158.0, 187500.0, 187500.0, 545.0696411132812, -3652.27490234375, 15482.3603515625, 23568.86328125, 54518.62890625, 65951.4609375, 0.06200000271201134, 0.9820000529289246, 0.15000000596046448, 192.0, 0.0, 0.0, 0.0, 0.0, 0.0, 0.0, 0.0, 0.0, 0.0, 1.6154772754566717E9, 2021-03-11 16:41:15.456
159.0, 187500.0, 187500.0, 580.2736206054688, -4654.6611328125, 15372.1435546875, 23512.224609375, 53976.6015625, 63946.1015625, 0.06200000271201134, 0.9820000529289246, 0.15000000596046448, 192.0, 0.0, 0.0, 0.0, 0.0, 0.0, 0.0, 0.0, 0.0, 0.0, 1.6154772754566743E9, 2021-03-11 16:41:15.456
160.0, 187500.0, 187500.0, 675.313232421875, -5191.7734375, 15525.5439453125, 23400.822265625, 54224.28125, 62506.11328125, 0.06200000271201134, 0.9820000529289246, 0.15000000596046448, 192.0, 0.0, 0.0, 0.0, 0.0, 0.0, 0.0, 0.0, 0.0, 0.0, 1.6154772754566772E9, 2021-03-11 16:41:15.456
161.0, 187500.0, 187500.0, 726.7445678710938, -4555.93359375, 15759.3427734375, 23429.455078125, 54928.76171875, 63645.83203125, 0.06200000271201134, 0.9820000529289246, 0.15000000596046448, 192.0, 0.0, 0.0, 0.0, 0.0, 0.0, 0.0, 0.0, 0.0, 0.0, 1.61547727545668E9, 2021-03-11 16:41:15.456
162.0, 187500.0, 187500.0, 969.9762573242188, -3531.262451171875, 15989.38671875, 23558.89453125, 55262.98828125, 65906.953125, 0.06200000271201134, 0.9820000529289246, 0.15000000596046448, 192.0, 0.0, 0.0, 0.0, 0.0, 0.0, 0.0, 0.0, 0.0, 0.0, 1.6154772754566827E9, 2021-03-11 16:41:15.456
163.0, 187500.0, 187500.0, 764.8319702148438, -3670.312744140625, 15674.7861328125, 23630.0625, 54601.33203125, 66167.7578125, 0.06200000271201134, 0.9820000529289246, 0.15000000596046448, 192.0, 0.0, 0.0, 0.0, 0.0, 0.0, 0.0, 0.0, 0.0, 0.0, 1.6154772754566855E9, 2021-03-11 16:41:15.456
164.0, 187500.0, 187500.0, 607.3192138671875, -4747.599609375, 15504.3984375, 23476.55078125, 53956.125, 64014.8125, 0.06200000271201134, 0.9820000529289246, 0.15000000596046448, 192.0, 0.0, 0.0, 0.0, 0.0, 0.0, 0.0, 0.0, 0.0, 0.0, 1.6154772754566884E9, 2021-03-11 16:41:15.456
165.0, 187500.0, 187500.0, 648.4464111328125, -5117.56591796875, 15624.2490234375, 23468.28125, 54159.7265625, 62587.5859375, 0.06200000271201134, 0.9820000529289246, 0.15000000596046448, 192.0, 0.0, 0.0, 0.0, 0.0, 0.0, 0.0, 0.0, 0.0, 0.0, 1.6154772754566913E9, 2021-03-11 16:41:15.456
166.0, 187500.0, 187500.0, 829.830810546875, -4475.02001953125, 15932.6357421875, 23605.765625, 54882.89453125, 63803.87890625, 0.07800000160932541, 0.940000057220459, 0.14400000870227814, 192.0, 2.0, 112.0, 29.0, 96.0, 4.0, 128.0, 0.0, 0.0, 0.0, 1.615477275456694E9, 2021-03-11 16:41:15.456
167.0, 187500.0, 187500.0, 900.1494140625, -3598.943603515625, 16018.064453125, 23583.01171875, 55156.7734375, 66006.6640625, 0.07800000160932541, 0.940000057220459, 0.14400000870227814, 192.0, 0.0, 0.0, 0.0, 0.0, 0.0, 0.0, 0.0, 0.0, 0.0, 1.6154772754566967E9, 2021-03-11 16:41:15.456
168.0, 187500.0, 187500.0, 645.9207153320312, -3728.695556640625, 15689.470703125, 23465.955078125, 54472.71875, 66145.671875, 0.07800000160932541, 0.940000057220459, 0.14400000870227814, 192.0, 0.0, 0.0, 0.0, 0.0, 0.0, 0.0, 0.0, 0.0, 0.0, 1.6154772754566996E9, 2021-03-11 16:41:15.456
169.0, 187500.0, 187500.0, 490.0843200683594, -4790.89501953125, 15462.7802734375, 23390.2734375, 53859.56640625, 63920.95703125, 0.07800000160932541, 0.940000057220459, 0.14400000870227814, 192.0, 0.0, 0.0, 0.0, 0.0, 0.0, 0.0, 0.0, 0.0, 0.0, 1.6154772754567025E9, 2021-03-11 16:41:15.456
170.0, 187500.0, 187500.0, 683.3822021484375, -5225.12255859375, 15675.478515625, 23497.78515625, 54190.4609375, 62551.82421875, 0.07800000160932541, 0.940000057220459, 0.14400000870227814, 192.0, 0.0, 0.0, 0.0, 0.0, 0.0, 0.0, 0.0, 0.0, 0.0, 1.615477275456705E9, 2021-03-11 16:41:15.456
171.0, 187500.0, 187500.0, 950.9325561523438, -4371.53173828125, 15983.7763671875, 23507.955078125, 54935.53515625, 63871.89453125, 0.07800000160932541, 0.940000057220459, 0.14400000870227814, 192.0, 0.0, 0.0, 0.0, 0.0, 0.0, 0.0, 0.0, 0.0, 0.0, 1.6154772754567077E9, 2021-03-11 16:41:15.456
172.0, 187500.0, 187500.0, 927.2174072265625, -3390.4912109375, 15981.18359375, 23531.603515625, 55136.5, 66053.9609375, 0.07800000160932541, 0.940000057220459, 0.14400000870227814, 192.0, 0.0, 0.0, 0.0, 0.0, 0.0, 0.0, 0.0, 0.0, 0.0, 1.6154772754567125E9, 2021-03-11 16:41:15.456
173.0, 187500.0, 187500.0, 567.7789916992188, -3745.61572265625, 15573.443359375, 23523.689453125, 54410.8046875, 66089.8359375, 0.07800000160932541, 0.940000057220459, 0.14400000870227814, 192.0, 0.0, 0.0, 0.0, 0.0, 0.0, 0.0, 0.0, 0.0, 0.0, 1.615477275456715E9, 2021-03-11 16:41:15.456
174.0, 187500.0, 187500.0, 422.17974853515625, -4981.7568359375, 15382.8271484375, 23526.86328125, 53852.48046875, 63844.046875, 0.07800000160932541, 0.940000057220459, 0.14400000870227814, 192.0, 0.0, 0.0, 0.0, 0.0, 0.0, 0.0, 0.0, 0.0, 0.0, 1.615477275456718E9, 2021-03-11 16:41:15.456
175.0, 187500.0, 187500.0, 701.800048828125, -5239.27099609375, 15654.826171875, 23400.287109375, 54264.24609375, 62531.86328125, 0.07800000160932541, 0.940000057220459, 0.14400000870227814, 192.0, 0.0, 0.0, 0.0, 0.0, 0.0, 0.0, 0.0, 0.0, 0.0, 1.6154772754567208E9, 2021-03-11 16:41:15.456
176.0, 187500.0, 187500.0, 889.1747436523438, -4406.10986328125, 15904.62890625, 23351.849609375, 55021.34375, 63856.62890625, 0.07800000160932541, 0.9580000638961792, 0.14000000059604645, 192.0, 2.0, 112.0, 29.0, 240.0, 4.0, 96.0, 0.0, 0.0, 0.0, 1.6154772754567237E9, 2021-03-11 16:41:15.456
177.0, 187500.0, 187500.0, 738.7921752929688, -3514.8564453125, 15819.3125, 23308.353515625, 55151.40625, 65969.453125, 0.07800000160932541, 0.9580000638961792, 0.14000000059604645, 192.0, 0.0, 0.0, 0.0, 0.0, 0.0, 0.0, 0.0, 0.0, 0.0, 1.6154772754567263E9, 2021-03-11 16:41:15.456
178.0, 187500.0, 187500.0, 567.7343139648438, -3718.25732421875, 15527.8232421875, 23471.0078125, 54525.984375, 66027.03125, 0.07800000160932541, 0.9580000638961792, 0.14000000059604645, 192.0, 0.0, 0.0, 0.0, 0.0, 0.0, 0.0, 0.0, 0.0, 0.0, 1.615477275456729E9, 2021-03-11 16:41:15.456
179.0, 187500.0, 187500.0, 622.5631103515625, -4696.6826171875, 15419.5966796875, 23386.875, 54068.51171875, 63846.48046875, 0.07800000160932541, 0.9580000638961792, 0.14000000059604645, 192.0, 0.0, 0.0, 0.0, 0.0, 0.0, 0.0, 0.0, 0.0, 0.0, 1.615477275456732E9, 2021-03-11 16:41:15.456
180.0, 187500.0, 187500.0, 666.8419189453125, -5066.447265625, 15565.6650390625, 23278.1796875, 54391.6953125, 62555.3984375, 0.07800000160932541, 0.9580000638961792, 0.14000000059604645, 192.0, 0.0, 0.0, 0.0, 0.0, 0.0, 0.0, 0.0, 0.0, 0.0, 1.615477275456735E9, 2021-03-11 16:41:15.456
181.0, 187500.0, 187500.0, 879.5411376953125, -4390.8212890625, 15869.7158203125, 23367.33984375, 55098.76953125, 63917.0, 0.07800000160932541, 0.9580000638961792, 0.14000000059604645, 192.0, 0.0, 0.0, 0.0, 0.0, 0.0, 0.0, 0.0, 0.0, 0.0, 1.6154772754567375E9, 2021-03-11 16:41:15.456
182.0, 187500.0, 187500.0, 846.6616821289062, -3533.967041015625, 15836.2998046875, 23411.6640625, 55256.9296875, 66058.7421875, 0.07800000160932541, 0.9580000638961792, 0.14000000059604645, 192.0, 0.0, 0.0, 0.0, 0.0, 0.0, 0.0, 0.0, 0.0, 0.0, 1.6154772754567401E9, 2021-03-11 16:41:15.456
183.0, 187500.0, 187500.0, 586.4203491210938, -3744.185302734375, 15520.603515625, 23339.376953125, 54604.86328125, 66074.03125, 0.07800000160932541, 0.9580000638961792, 0.14000000059604645, 192.0, 0.0, 0.0, 0.0, 0.0, 0.0, 0.0, 0.0, 0.0, 0.0, 1.6154772754567432E9, 2021-03-11 16:41:15.456
184.0, 187500.0, 187500.0, 492.78887939453125, -4759.11083984375, 15379.5419921875, 23321.541015625, 54086.7734375, 63843.7109375, 0.07800000160932541, 0.9580000638961792, 0.14000000059604645, 192.0, 0.0, 0.0, 0.0, 0.0, 0.0, 0.0, 0.0, 0.0, 0.0, 1.615477275456746E9, 2021-03-11 16:41:15.456
185.0, 187500.0, 187500.0, 572.8305053710938, -5169.89111328125, 15532.8076171875, 23302.654296875, 54385.6796875, 62564.4296875, 0.07800000160932541, 0.9580000638961792, 0.14000000059604645, 192.0, 0.0, 0.0, 0.0, 0.0, 0.0, 0.0, 0.0, 0.0, 0.0, 1.6154772754567485E9, 2021-03-11 16:41:15.456
186.0, 187500.0, 187500.0, 760.31689453125, -4449.3828125, 15806.4375, 23317.919921875, 55064.7734375, 63962.734375, 0.06400000303983688, 0.9500000476837158, 0.1380000114440918, 192.0, 2.0, 0.0, 29.0, 176.0, 4.0, 80.0, 0.0, 0.0, 0.0, 1.615477275456751E9, 2021-03-11 16:41:15.456
187.0, 187500.0, 187500.0, 940.8966674804688, -3535.866943359375, 15925.86328125, 23377.15234375, 55287.73046875, 66142.6796875, 0.06400000303983688, 0.9500000476837158, 0.1380000114440918, 192.0, 0.0, 0.0, 0.0, 0.0, 0.0, 0.0, 0.0, 0.0, 0.0, 1.6154772754567542E9, 2021-03-11 16:41:15.456
188.0, 187500.0, 187500.0, 692.1887817382812, -3677.130126953125, 15588.2177734375, 23251.84765625, 54578.265625, 66121.328125, 0.06400000303983688, 0.9500000476837158, 0.1380000114440918, 192.0, 0.0, 0.0, 0.0, 0.0, 0.0, 0.0, 0.0, 0.0, 0.0, 1.6154772754567573E9, 2021-03-11 16:41:15.456
