%OpenBCI Raw EEG Data
%Number of channels = 8
%Sample Rate = 250 Hz
%Board = OpenBCI_GUI$BoardCytonSerial
Sample Index, EXG Channel 0, EXG Channel 1, EXG Channel 2, EXG Channel 3, EXG Channel 4, EXG Channel 5, EXG Channel 6, EXG Channel 7, Accel Channel 0, Accel Channel 1, Accel Channel 2, Other, Other, Other, Other, Other, Other, Other, Analog Channel 0, Analog Channel 1, Analog Channel 2, Timestamp, Timestamp (Formatted)
33.0, 150831.0, 187500.0, -187500.015625, -810.5636596679688, -187500.015625, -8352.1533203125, -18682.2578125, -8970.783203125, 0.15800000727176666, 0.89000004529953, 0.3240000009536743, 192.0, 0.0, 0.0, 0.0, 0.0, 0.0, 0.0, 0.0, 0.0, 0.0, 1.6154783660849247E9, 2021-03-11 16:59:26.084
34.0, 150823.640625, 187500.0, -187500.015625, -676.810791015625, -187500.015625, -8358.9267578125, -18682.525390625, -8960.4560546875, 0.15800000727176666, 0.89000004529953, 0.3240000009536743, 192.0, 0.0, 0.0, 0.0, 0.0, 0.0, 0.0, 0.0, 0.0, 0.0, 1.6154783660850592E9, 2021-03-11 16:59:26.085
35.0, 150518.046875, 187500.0, -187500.015625, -427.8123779296875, -187500.015625, -8603.3427734375, -18942.25390625, -9182.1181640625, 0.15800000727176666, 0.89000004529953, 0.3240000009536743, 192.0, 0.0, 0.0, 0.0, 0.0, 0.0, 0.0, 0.0, 0.0, 0.0, 1.6154783660850897E9, 2021-03-11 16:59:26.085
36.0, 150202.109375, 187500.0, -187500.015625, -353.2022399902344, -187500.015625, -8894.18359375, -19242.81640625, -9468.8916015625, 0.15800000727176666, 0.89000004529953, 0.3240000009536743, 192.0, 0.0, 0.0, 0.0, 0.0, 0.0, 0.0, 0.0, 0.0, 0.0, 1.6154783660850928E9, 2021-03-11 16:59:26.085
37.0, 150414.0625, 187500.0, -187500.015625, -610.3367309570312, -187500.015625, -8712.0615234375, -19063.48828125, -9316.1396484375, 0.15800000727176666, 0.8940000534057617, 0.3320000171661377, 192.0, 4.0, 240.0, 27.0, 240.0, 10.0, 96.0, 0.0, 0.0, 0.0, 1.6154783660850968E9, 2021-03-11 16:59:26.085
38.0, 150818.390625, 187500.0, -187500.015625, -800.8406372070312, -187500.015625, -8342.095703125, -18670.9921875, -8955.6953125, 0.15800000727176666, 0.8940000534057617, 0.3320000171661377, 192.0, 0.0, 0.0, 0.0, 0.0, 0.0, 0.0, 0.0, 0.0, 0.0, 1.6154783660850997E9, 2021-03-11 16:59:26.085
39.0, 150804.9375, 187500.0, -187500.015625, -659.9575805664062, -187500.015625, -8356.4453125, -18683.107421875, -8952.9013671875, 0.15800000727176666, 0.8940000534057617, 0.3320000171661377, 192.0, 0.0, 0.0, 0.0, 0.0, 0.0, 0.0, 0.0, 0.0, 0.0, 1.615478366085102E9, 2021-03-11 16:59:26.085
40.0, 150532.40625, 187500.0, -187500.015625, -408.5675354003906, -187500.015625, -8601.21875, -18948.892578125, -9180.666015625, 0.15800000727176666, 0.8940000534057617, 0.3320000171661377, 192.0, 0.0, 0.0, 0.0, 0.0, 0.0, 0.0, 0.0, 0.0, 0.0, 1.615478366085106E9, 2021-03-11 16:59:26.085
41.0, 150225.734375, 187500.0, -187500.015625, -354.18572998046875, -187500.015625, -8889.646484375, -19256.138671875, -9469.115234375, 0.15800000727176666, 0.8940000534057617, 0.3320000171661377, 192.0, 0.0, 0.0, 0.0, 0.0, 0.0, 0.0, 0.0, 0.0, 0.0, 1.6154783660851088E9, 2021-03-11 16:59:26.085
42.0, 150427.75, 187500.0, -187500.015625, -626.0499877929688, -187500.015625, -8710.2734375, -19068.4296875, -9316.4521484375, 0.15800000727176666, 0.8940000534057617, 0.3320000171661377, 192.0, 0.0, 0.0, 0.0, 0.0, 0.0, 0.0, 0.0, 0.0, 0.0, 1.6154783660851164E9, 2021-03-11 16:59:26.085
43.0, 150823.734375, 187500.0, -187500.015625, -803.9698486328125, -187500.015625, -8342.5205078125, -18677.138671875, -8960.0537109375, 0.15800000727176666, 0.8940000534057617, 0.3320000171661377, 192.0, 0.0, 0.0, 0.0, 0.0, 0.0, 0.0, 0.0, 0.0, 0.0, 1.615478366085121E9, 2021-03-11 16:59:26.085
44.0, 150802.71875, 187500.0, -187500.015625, -671.8263549804688, -187500.015625, -8358.2333984375, -18688.271484375, -8954.7568359375, 0.15800000727176666, 0.8940000534057617, 0.3320000171661377, 192.0, 0.0, 0.0, 0.0, 0.0, 0.0, 0.0, 0.0, 0.0, 0.0, 1.6154783660851247E9, 2021-03-11 16:59:26.085
45.0, 150522.90625, 187500.0, -187500.015625, -420.10101318359375, -187500.015625, -8613.4228515625, -18960.068359375, -9188.130859375, 0.15800000727176666, 0.8940000534057617, 0.3320000171661377, 192.0, 0.0, 0.0, 0.0, 0.0, 0.0, 0.0, 0.0, 0.0, 0.0, 1.6154783660851295E9, 2021-03-11 16:59:26.085
46.0, 150230.890625, 187500.0, -187500.015625, -364.6910400390625, -187500.015625, -8888.6630859375, -19243.845703125, -9462.029296875, 0.15800000727176666, 0.8940000534057617, 0.3320000171661377, 192.0, 0.0, 0.0, 0.0, 0.0, 0.0, 0.0, 0.0, 0.0, 0.0, 1.6154783660851333E9, 2021-03-11 16:59:26.085
47.0, 150463.6875, 187500.0, -187500.015625, -643.6631469726562, -187500.015625, -8705.490234375, -19047.529296875, -9305.634765625, 0.16600000858306885, 0.8920000195503235, 0.3360000252723694, 192.0, 5.0, 48.0, 27.0, 224.0, 10.0, 128.0, 0.0, 0.0, 0.0, 1.6154783660851364E9, 2021-03-11 16:59:26.085
48.0, 150829.390625, 187500.0, -187500.015625, -816.0845336914062, -187500.015625, -8352.533203125, -18681.6328125, -8967.1171875, 0.16600000858306885, 0.8920000195503235, 0.3360000252723694, 192.0, 0.0, 0.0, 0.0, 0.0, 0.0, 0.0, 0.0, 0.0, 0.0, 1.615478366085139E9, 2021-03-11 16:59:26.085
49.0, 150772.96875, 187500.0, -187500.015625, -688.9254150390625, -187500.015625, -8385.63671875, -18719.228515625, -8986.5185546875, 0.16600000858306885, 0.8920000195503235, 0.3360000252723694, 192.0, 0.0, 0.0, 0.0, 0.0, 0.0, 0.0, 0.0, 0.0, 0.0, 1.615478366085142E9, 2021-03-11 16:59:26.085
50.0, 150517.0, 187500.0, -187500.015625, -432.68505859375, -187500.015625, -8630.74609375, -18975.2890625, -9211.533203125, 0.16600000858306885, 0.8920000195503235, 0.3360000252723694, 192.0, 0.0, 0.0, 0.0, 0.0, 0.0, 0.0, 0.0, 0.0, 0.0, 1.615478366085186E9, 2021-03-11 16:59:26.085
51.0, 150219.5, 187500.0, -187500.015625, -377.09625244140625, -187500.015625, -8894.6748046875, -19251.490234375, -9476.4912109375, 0.16600000858306885, 0.8920000195503235, 0.3360000252723694, 192.0, 0.0, 0.0, 0.0, 0.0, 0.0, 0.0, 0.0, 0.0, 0.0, 1.6154783660851915E9, 2021-03-11 16:59:26.085
52.0, 150431.796875, 187500.0, -187500.015625, -661.76806640625, -187500.015625, -8702.673828125, -19047.931640625, -9307.4453125, 0.16600000858306885, 0.8920000195503235, 0.3360000252723694, 192.0, 0.0, 0.0, 0.0, 0.0, 0.0, 0.0, 0.0, 0.0, 0.0, 1.6154783660851943E9, 2021-03-11 16:59:26.085
53.0, 150808.40625, 187500.0, -187500.015625, -827.4615478515625, -187500.015625, -8349.560546875, -18675.26171875, -8967.005859375, 0.16600000858306885, 0.8920000195503235, 0.3360000252723694, 192.0, 0.0, 0.0, 0.0, 0.0, 0.0, 0.0, 0.0, 0.0, 0.0, 1.6154783660851989E9, 2021-03-11 16:59:26.085
54.0, 150779.984375, 187500.0, -187500.015625, -687.6290283203125, -187500.015625, -8374.505859375, -18700.453125, -8974.5830078125, 0.16600000858306885, 0.8920000195503235, 0.3360000252723694, 192.0, 0.0, 0.0, 0.0, 0.0, 0.0, 0.0, 0.0, 0.0, 0.0, 1.6154783660852032E9, 2021-03-11 16:59:26.085
55.0, 150496.328125, 187500.0, -187500.015625, -431.6792297363281, -187500.015625, -8625.962890625, -18967.5546875, -9202.705078125, 0.16600000858306885, 0.8920000195503235, 0.3360000252723694, 192.0, 0.0, 0.0, 0.0, 0.0, 0.0, 0.0, 0.0, 0.0, 0.0, 1.6154783660852067E9, 2021-03-11 16:59:26.085
56.0, 150213.34375, 187500.0, -187500.015625, -392.09429931640625, -187500.015625, -8887.142578125, -19249.6796875, -9467.6396484375, 0.16600000858306885, 0.8920000195503235, 0.3360000252723694, 192.0, 0.0, 0.0, 0.0, 0.0, 0.0, 0.0, 0.0, 0.0, 0.0, 1.615478366085214E9, 2021-03-11 16:59:26.085
57.0, 150460.046875, 187500.0, -187500.015625, -660.7622680664062, -187500.015625, -8665.123046875, -19027.904296875, -9275.8173828125, 0.1600000113248825, 0.8960000276565552, 0.33000001311302185, 192.0, 5.0, 0.0, 28.0, 0.0, 10.0, 80.0, 0.0, 0.0, 0.0, 1.61547836608522E9, 2021-03-11 16:59:26.085
58.0, 150847.578125, 187500.0, -187500.015625, -817.6267700195312, -187500.015625, -8305.505859375, -18643.701171875, -8926.4375, 0.1600000113248825, 0.8960000276565552, 0.33000001311302185, 192.0, 0.0, 0.0, 0.0, 0.0, 0.0, 0.0, 0.0, 0.0, 0.0, 1.615478366085226E9, 2021-03-11 16:59:26.085
59.0, 150792.28125, 187500.0, -187500.015625, -667.5795288085938, -187500.015625, -8351.1259765625, -18685.54296875, -8951.91796875, 0.1600000113248825, 0.8960000276565552, 0.33000001311302185, 192.0, 0.0, 0.0, 0.0, 0.0, 0.0, 0.0, 0.0, 0.0, 0.0, 1.6154783660852327E9, 2021-03-11 16:59:26.085
60.0, 150495.046875, 187500.0, -187500.015625, -423.25262451171875, -187500.015625, -8626.029296875, -18979.201171875, -9209.90234375, 0.1600000113248825, 0.8960000276565552, 0.33000001311302185, 192.0, 0.0, 0.0, 0.0, 0.0, 0.0, 0.0, 0.0, 0.0, 0.0, 1.61547836608524E9, 2021-03-11 16:59:26.085
61.0, 150231.03125, 187500.0, -187500.015625, -396.6763916015625, -187500.015625, -8891.6357421875, -19257.525390625, -9480.5810546875, 0.1600000113248825, 0.8960000276565552, 0.33000001311302185, 192.0, 0.0, 0.0, 0.0, 0.0, 0.0, 0.0, 0.0, 0.0, 0.0, 1.6154783660852487E9, 2021-03-11 16:59:26.085
62.0, 150500.578125, 187500.0, -187500.015625, -683.404541015625, -187500.015625, -8680.5673828125, -19036.689453125, -9296.42578125, 0.1600000113248825, 0.8960000276565552, 0.33000001311302185, 192.0, 0.0, 0.0, 0.0, 0.0, 0.0, 0.0, 0.0, 0.0, 0.0, 1.6154783660852573E9, 2021-03-11 16:59:26.085
63.0, 150852.75, 187500.0, -187500.015625, -823.1476440429688, -187500.015625, -8329.9365234375, -18662.87890625, -8953.7509765625, 0.1600000113248825, 0.8960000276565552, 0.33000001311302185, 192.0, 0.0, 0.0, 0.0, 0.0, 0.0, 0.0, 0.0, 0.0, 0.0, 1.6154783660852647E9, 2021-03-11 16:59:26.085
64.0, 150778.453125, 187500.0, -187500.015625, -685.1703491210938, -187500.015625, -8377.3662109375, -18708.208984375, -8982.9873046875, 0.1600000113248825, 0.8960000276565552, 0.33000001311302185, 192.0, 0.0, 0.0, 0.0, 0.0, 0.0, 0.0, 0.0, 0.0, 0.0, 1.6154783660852685E9, 2021-03-11 16:59:26.085
65.0, 150481.734375, 187500.0, -187500.015625, -427.49945068359375, -187500.015625, -8641.4521484375, -18987.626953125, -9225.771484375, 0.1600000113248825, 0.8960000276565552, 0.33000001311302185, 192.0, 0.0, 0.0, 0.0, 0.0, 0.0, 0.0, 0.0, 0.0, 0.0, 1.6154783660852764E9, 2021-03-11 16:59:26.085
66.0, 150213.734375, 187500.0, -187500.015625, -407.7628479003906, -187500.015625, -8893.892578125, -19242.1015625, -9480.1787109375, 0.1600000113248825, 0.8960000276565552, 0.33000001311302185, 192.0, 0.0, 0.0, 0.0, 0.0, 0.0, 0.0, 0.0, 0.0, 0.0, 1.6154783660852845E9, 2021-03-11 16:59:26.085
67.0, 150469.859375, 187500.0, -187500.015625, -693.3287353515625, -187500.015625, -8667.693359375, -19008.5703125, -9281.6953125, 0.15800000727176666, 0.8920000195503235, 0.3320000171661377, 192.0, 4.0, 240.0, 27.0, 224.0, 10.0, 96.0, 0.0, 0.0, 0.0, 1.6154783660852911E9, 2021-03-11 16:59:26.085
68.0, 150848.25, 187500.0, -187500.015625, -820.8677978515625, -187500.015625, -8321.46484375, -18652.708984375, -8946.7548828125, 0.15800000727176666, 0.8920000195503235, 0.3320000171661377, 192.0, 0.0, 0.0, 0.0, 0.0, 0.0, 0.0, 0.0, 0.0, 0.0, 1.615478366085296E9, 2021-03-11 16:59:26.085
69.0, 150799.5625, 187500.0, -187500.015625, -680.0741577148438, -187500.015625, -8370.482421875, -18710.845703125, -8977.689453125, 0.15800000727176666, 0.8920000195503235, 0.3320000171661377, 192.0, 0.0, 0.0, 0.0, 0.0, 0.0, 0.0, 0.0, 0.0, 0.0, 1.615478366085304E9, 2021-03-11 16:59:26.085
70.0, 150489.375, 187500.0, -187500.015625, -423.2079162597656, -187500.015625, -8645.0732421875, -18996.3671875, -9228.498046875, 0.15800000727176666, 0.8920000195503235, 0.3320000171661377, 192.0, 0.0, 0.0, 0.0, 0.0, 0.0, 0.0, 0.0, 0.0, 0.0, 1.6154783660853112E9, 2021-03-11 16:59:26.085
71.0, 150226.15625, 187500.0, -187500.015625, -411.3614807128906, -187500.015625, -8891.27734375, -19248.6953125, -9479.240234375, 0.15800000727176666, 0.8920000195503235, 0.3320000171661377, 192.0, 0.0, 0.0, 0.0, 0.0, 0.0, 0.0, 0.0, 0.0, 0.0, 1.615478366085314E9, 2021-03-11 16:59:26.085
72.0, 150498.328125, 187500.0, -187500.015625, -692.3676147460938, -187500.015625, -8640.669921875, -18975.71484375, -9251.07421875, 0.15800000727176666, 0.8920000195503235, 0.3320000171661377, 192.0, 0.0, 0.0, 0.0, 0.0, 0.0, 0.0, 0.0, 0.0, 0.0, 1.6154783660853183E9, 2021-03-11 16:59:26.085
73.0, 150857.859375, 187500.0, -187500.015625, -807.5238037109375, -187500.015625, -8305.9306640625, -18631.251953125, -8923.93359375, 0.15800000727176666, 0.8920000195503235, 0.3320000171661377, 192.0, 0.0, 0.0, 0.0, 0.0, 0.0, 0.0, 0.0, 0.0, 0.0, 1.6154783660853367E9, 2021-03-11 16:59:26.085
74.0, 150798.453125, 187500.0, -187500.015625, -673.212158203125, -187500.015625, -8374.416015625, -18703.42578125, -8973.5546875, 0.15800000727176666, 0.8920000195503235, 0.3320000171661377, 192.0, 0.0, 0.0, 0.0, 0.0, 0.0, 0.0, 0.0, 0.0, 0.0, 1.6154783660853453E9, 2021-03-11 16:59:26.085
75.0, 150505.71875, 187500.0, -187500.015625, -430.24871826171875, -187500.015625, -8646.01171875, -18990.33203125, -9221.748046875, 0.15800000727176666, 0.8920000195503235, 0.3320000171661377, 192.0, 0.0, 0.0, 0.0, 0.0, 0.0, 0.0, 0.0, 0.0, 0.0, 1.6154783660853484E9, 2021-03-11 16:59:26.085
76.0, 150230.0, 187500.0, -187500.015625, -420.4586486816406, -187500.015625, -8881.599609375, -19233.720703125, -9458.05078125, 0.15800000727176666, 0.8920000195503235, 0.3320000171661377, 192.0, 0.0, 0.0, 0.0, 0.0, 0.0, 0.0, 0.0, 0.0, 0.0, 1.6154783660853512E9, 2021-03-11 16:59:26.085
77.0, 150494.5625, 187500.0, -187500.015625, -705.3316040039062, -187500.015625, -8637.49609375, -18971.802734375, -9240.568359375, 0.15000000596046448, 0.8920000195503235, 0.3320000171661377, 192.0, 4.0, 176.0, 27.0, 224.0, 10.0, 96.0, 0.0, 0.0, 0.0, 1.615478366085359E9, 2021-03-11 16:59:26.085
78.0, 150842.703125, 187500.0, -187500.015625, -832.937744140625, -187500.015625, -8323.587890625, -18642.650390625, -8936.607421875, 0.15000000596046448, 0.8920000195503235, 0.3320000171661377, 192.0, 0.0, 0.0, 0.0, 0.0, 0.0, 0.0, 0.0, 0.0, 0.0, 1.615478366085369E9, 2021-03-11 16:59:26.085
79.0, 150775.671875, 187500.0, -187500.015625, -690.0653686523438, -187500.015625, -8388.408203125, -18705.5703125, -8984.529296875, 0.15000000596046448, 0.8920000195503235, 0.3320000171661377, 192.0, 0.0, 0.0, 0.0, 0.0, 0.0, 0.0, 0.0, 0.0, 0.0, 1.6154783660853753E9, 2021-03-11 16:59:26.085
80.0, 150478.59375, 187500.0, -187500.015625, -431.5003967285156, -187500.015625, -8656.0927734375, -18990.01953125, -9235.5615234375, 0.15000000596046448, 0.8920000195503235, 0.3320000171661377, 192.0, 0.0, 0.0, 0.0, 0.0, 0.0, 0.0, 0.0, 0.0, 0.0, 1.615478366085381E9, 2021-03-11 16:59:26.085
81.0, 150217.421875, 187500.0, -187500.015625, -440.2622985839844, -187500.015625, -8906.0078125, -19252.048828125, -9492.7626953125, 0.15000000596046448, 0.8920000195503235, 0.3320000171661377, 192.0, 0.0, 0.0, 0.0, 0.0, 0.0, 0.0, 0.0, 0.0, 0.0, 1.615478366085396E9, 2021-03-11 16:59:26.085
82.0, 150522.296875, 187500.0, -187500.015625, -734.4559326171875, -187500.015625, -8634.7021484375, -18966.75, -9248.5927734375, 0.15000000596046448, 0.8920000195503235, 0.3320000171661377, 192.0, 0.0, 0.0, 0.0, 0.0, 0.0, 0.0, 0.0, 0.0, 0.0, 1.6154783660854008E9, 2021-03-11 16:59:26.085
83.0, 150863.546875, 187500.0, -187500.015625, -836.2011108398438, -187500.015625, -8318.6484375, -18640.974609375, -8938.3505859375, 0.15000000596046448, 0.8920000195503235, 0.3320000171661377, 192.0, 0.0, 0.0, 0.0, 0.0, 0.0, 0.0, 0.0, 0.0, 0.0, 1.6154783660854087E9, 2021-03-11 16:59:26.085
84.0, 150786.71875, 187500.0, -187500.015625, -700.2577514648438, -187500.015625, -8394.9794921875, -18712.4765625, -8990.9443359375, 0.15000000596046448, 0.8920000195503235, 0.3320000171661377, 192.0, 0.0, 0.0, 0.0, 0.0, 0.0, 0.0, 0.0, 0.0, 0.0, 1.615478366085415E9, 2021-03-11 16:59:26.085
85.0, 150481.75, 187500.0, -187500.015625, -439.4129333496094, -187500.015625, -8668.744140625, -18999.294921875, -9242.8486328125, 0.15000000596046448, 0.8920000195503235, 0.3320000171661377, 192.0, 0.0, 0.0, 0.0, 0.0, 0.0, 0.0, 0.0, 0.0, 0.0, 1.6154783660854187E9, 2021-03-11 16:59:26.085
86.0, 150228.453125, 187500.0, -187500.015625, -445.31378173828125, -187500.015625, -8906.4326171875, -19250.037109375, -9487.8232421875, 0.15000000596046448, 0.8920000195503235, 0.3320000171661377, 192.0, 0.0, 0.0, 0.0, 0.0, 0.0, 0.0, 0.0, 0.0, 0.0, 1.6154783660854225E9, 2021-03-11 16:59:26.085
87.0, 150540.0625, 187500.0, -187500.015625, -741.4073486328125, -187500.015625, -8631.5283203125, -18962.75, -9239.25, 0.14600001275539398, 0.8880000710487366, 0.33400002121925354, 192.0, 4.0, 144.0, 27.0, 192.0, 10.0, 112.0, 0.0, 0.0, 0.0, 1.6154783660854263E9, 2021-03-11 16:59:26.085
88.0, 150907.65625, 187500.0, -187500.015625, -830.68017578125, -187500.015625, -8312.2109375, -18634.626953125, -8925.990234375, 0.14600001275539398, 0.8880000710487366, 0.33400002121925354, 192.0, 0.0, 0.0, 0.0, 0.0, 0.0, 0.0, 0.0, 0.0, 0.0, 1.6154783660854287E9, 2021-03-11 16:59:26.085
89.0, 150785.578125, 187500.0, -187500.015625, -681.3258666992188, -187500.015625, -8384.4970703125, -18710.578125, -8977.779296875, 0.14600001275539398, 0.8880000710487366, 0.33400002121925354, 192.0, 0.0, 0.0, 0.0, 0.0, 0.0, 0.0, 0.0, 0.0, 0.0, 1.6154783660854316E9, 2021-03-11 16:59:26.085
90.0, 150459.21875, 187500.0, -187500.015625, -433.1767883300781, -187500.015625, -8661.546875, -19002.916015625, -9234.1533203125, 0.14600001275539398, 0.8880000710487366, 0.33400002121925354, 192.0, 0.0, 0.0, 0.0, 0.0, 0.0, 0.0, 0.0, 0.0, 0.0, 1.6154783660854354E9, 2021-03-11 16:59:26.085
91.0, 150222.359375, 187500.0, -187500.015625, -448.5547790527344, -187500.015625, -8898.6318359375, -19250.6171875, -9477.0947265625, 0.14600001275539398, 0.8880000710487366, 0.33400002121925354, 192.0, 0.0, 0.0, 0.0, 0.0, 0.0, 0.0, 0.0, 0.0, 0.0, 1.6154783660854468E9, 2021-03-11 16:59:26.085
92.0, 150535.0, 187500.0, -187500.015625, -746.8611450195312, -187500.015625, -8621.08984375, -18956.0, -9227.224609375, 0.14600001275539398, 0.8880000710487366, 0.33400002121925354, 192.0, 0.0, 0.0, 0.0, 0.0, 0.0, 0.0, 0.0, 0.0, 0.0, 1.6154783660854533E9, 2021-03-11 16:59:26.085
93.0, 150864.375, 187500.0, -187500.015625, -843.3089599609375, -187500.015625, -8315.2509765625, -18634.8046875, -8927.8671875, 0.14600001275539398, 0.8880000710487366, 0.33400002121925354, 192.0, 0.0, 0.0, 0.0, 0.0, 0.0, 0.0, 0.0, 0.0, 0.0, 1.6154783660854616E9, 2021-03-11 16:59:26.085
94.0, 150775.453125, 187500.0, -187500.015625, -688.5454711914062, -187500.015625, -8397.37109375, -18720.255859375, -8990.005859375, 0.14600001275539398, 0.8880000710487366, 0.33400002121925354, 192.0, 0.0, 0.0, 0.0, 0.0, 0.0, 0.0, 0.0, 0.0, 0.0, 1.615478366085478E9, 2021-03-11 16:59:26.085
95.0, 150470.890625, 187500.0, -187500.015625, -433.2662048339844, -187500.015625, -8674.7568359375, -19011.833984375, -9246.0673828125, 0.14600001275539398, 0.8880000710487366, 0.33400002121925354, 192.0, 0.0, 0.0, 0.0, 0.0, 0.0, 0.0, 0.0, 0.0, 0.0, 1.615478366085482E9, 2021-03-11 16:59:26.085
96.0, 150230.3125, 187500.0, -187500.015625, -459.6636047363281, -187500.015625, -8906.0966796875, -19247.869140625, -9482.3916015625, 0.14600001275539398, 0.8880000710487366, 0.33400002121925354, 192.0, 0.0, 0.0, 0.0, 0.0, 0.0, 0.0, 0.0, 0.0, 0.0, 1.615478366085486E9, 2021-03-11 16:59:26.085
97.0, 150536.578125, 187500.0, -187500.015625, -762.9544067382812, -187500.015625, -8630.3662109375, -18957.900390625, -9231.76171875, 0.14800000190734863, 0.8880000710487366, 0.33000001311302185, 192.0, 4.0, 160.0, 27.0, 192.0, 10.0, 80.0, 0.0, 0.0, 0.0, 1.6154783660855002E9, 2021-03-11 16:59:26.085
98.0, 150858.9375, 187500.0, -187500.015625, -849.6568603515625, -187500.015625, -8329.5556640625, -18640.68359375, -8934.1259765625, 0.14800000190734863, 0.8880000710487366, 0.33000001311302185, 192.0, 0.0, 0.0, 0.0, 0.0, 0.0, 0.0, 0.0, 0.0, 0.0, 1.615478366085503E9, 2021-03-11 16:59:26.085
99.0, 150767.859375, 187500.0, -187500.015625, -694.0440063476562, -187500.015625, -8408.703125, -18716.90234375, -8992.888671875, 0.14800000190734863, 0.8880000710487366, 0.33000001311302185, 192.0, 0.0, 0.0, 0.0, 0.0, 0.0, 0.0, 0.0, 0.0, 0.0, 1.6154783660855055E9, 2021-03-11 16:59:26.085
100.0, 150469.953125, 187500.0, -187500.015625, -425.59954833984375, -187500.015625, -8677.4833984375, -18999.138671875, -9240.3447265625, 0.14800000190734863, 0.8880000710487366, 0.33000001311302185, 192.0, 0.0, 0.0, 0.0, 0.0, 0.0, 0.0, 0.0, 0.0, 0.0, 1.6154783660855083E9, 2021-03-11 16:59:26.085
101.0, 150245.875, 187500.0, -187500.015625, -459.1048278808594, -187500.015625, -8893.6025390625, -19233.25, -9466.1650390625, 0.14800000190734863, 0.8880000710487366, 0.33000001311302185, 192.0, 0.0, 0.0, 0.0, 0.0, 0.0, 0.0, 0.0, 0.0, 0.0, 1.615478366085512E9, 2021-03-11 16:59:26.085
102.0, 150560.390625, 187500.0, -187500.015625, -765.971923828125, -187500.015625, -8607.6787109375, -18942.9453125, -9208.9404296875, 0.14800000190734863, 0.8880000710487366, 0.33000001311302185, 192.0, 0.0, 0.0, 0.0, 0.0, 0.0, 0.0, 0.0, 0.0, 0.0, 1.6154783660855155E9, 2021-03-11 16:59:26.085
103.0, 150880.953125, 187500.0, -187500.015625, -837.430419921875, -187500.015625, -8314.423828125, -18635.251953125, -8916.6689453125, 0.14800000190734863, 0.8880000710487366, 0.33000001311302185, 192.0, 0.0, 0.0, 0.0, 0.0, 0.0, 0.0, 0.0, 0.0, 0.0, 1.6154783660855184E9, 2021-03-11 16:59:26.085
104.0, 150798.390625, 187500.0, -187500.015625, -693.5299072265625, -187500.015625, -8407.5859375, -18719.25, -8985.892578125, 0.14800000190734863, 0.8880000710487366, 0.33000001311302185, 192.0, 0.0, 0.0, 0.0, 0.0, 0.0, 0.0, 0.0, 0.0, 0.0, 1.615478366085522E9, 2021-03-11 16:59:26.085
105.0, 150455.9375, 187500.0, -187500.015625, -440.3517150878906, -187500.015625, -8695.0966796875, -19018.31640625, -9253.107421875, 0.14800000190734863, 0.8880000710487366, 0.33000001311302185, 192.0, 0.0, 0.0, 0.0, 0.0, 0.0, 0.0, 0.0, 0.0, 0.0, 1.6154783660855253E9, 2021-03-11 16:59:26.085
106.0, 150227.09375, 187500.0, -187500.015625, -481.4342041015625, -187500.015625, -8903.19140625, -19236.06640625, -9468.466796875, 0.14800000190734863, 0.8880000710487366, 0.33000001311302185, 192.0, 0.0, 0.0, 0.0, 0.0, 0.0, 0.0, 0.0, 0.0, 0.0, 1.6154783660855281E9, 2021-03-11 16:59:26.085
107.0, 150560.625, 187500.0, -187500.015625, -793.2857055664062, -187500.015625, -8607.298828125, -18920.4375, -9198.7255859375, 0.15400001406669617, 0.8960000276565552, 0.33400002121925354, 192.0, 4.0, 208.0, 28.0, 0.0, 10.0, 112.0, 0.0, 0.0, 0.0, 1.6154783660855312E9, 2021-03-11 16:59:26.085
108.0, 150865.53125, 187500.0, -187500.015625, -869.7733764648438, -187500.015625, -8328.7509765625, -18635.23046875, -8925.8115234375, 0.15400001406669617, 0.8960000276565552, 0.33400002121925354, 192.0, 0.0, 0.0, 0.0, 0.0, 0.0, 0.0, 0.0, 0.0, 0.0, 1.615478366085534E9, 2021-03-11 16:59:26.085
109.0, 150756.671875, 187500.0, -187500.015625, -707.499755859375, -187500.015625, -8423.0087890625, -18725.10546875, -8996.4873046875, 0.15400001406669617, 0.8960000276565552, 0.33400002121925354, 192.0, 0.0, 0.0, 0.0, 0.0, 0.0, 0.0, 0.0, 0.0, 0.0, 1.6154783660855377E9, 2021-03-11 16:59:26.085
110.0, 150432.78125, 187500.0, -187500.015625, -458.0766296386719, -187500.015625, -8711.078125, -19033.494140625, -9266.0498046875, 0.15400001406669617, 0.8960000276565552, 0.33400002121925354, 192.0, 0.0, 0.0, 0.0, 0.0, 0.0, 0.0, 0.0, 0.0, 0.0, 1.6154783660855408E9, 2021-03-11 16:59:26.085
111.0, 150221.671875, 187500.0, -187500.015625, -491.89483642578125, -187500.015625, -8911.439453125, -19247.689453125, -9473.6748046875, 0.15400001406669617, 0.8960000276565552, 0.33400002121925354, 192.0, 0.0, 0.0, 0.0, 0.0, 0.0, 0.0, 0.0, 0.0, 0.0, 1.6154783660855465E9, 2021-03-11 16:59:26.085
112.0, 150568.40625, 187500.0, -187500.015625, -795.8785400390625, -187500.015625, -8603.0517578125, -18923.0078125, -9190.43359375, 0.15400001406669617, 0.8960000276565552, 0.33400002121925354, 192.0, 0.0, 0.0, 0.0, 0.0, 0.0, 0.0, 0.0, 0.0, 0.0, 1.6154783660855494E9, 2021-03-11 16:59:26.085
113.0, 150868.703125, 187500.0, -187500.015625, -863.6937255859375, -187500.015625, -8325.0634765625, -18630.357421875, -8915.1494140625, 0.15400001406669617, 0.8960000276565552, 0.33400002121925354, 192.0, 0.0, 0.0, 0.0, 0.0, 0.0, 0.0, 0.0, 0.0, 0.0, 1.6154783660855532E9, 2021-03-11 16:59:26.085
114.0, 150764.484375, 187500.0, -187500.015625, -700.794189453125, -187500.015625, -8432.8212890625, -18746.33984375, -9007.283203125, 0.15400001406669617, 0.8960000276565552, 0.33400002121925354, 192.0, 0.0, 0.0, 0.0, 0.0, 0.0, 0.0, 0.0, 0.0, 0.0, 1.615478366085556E9, 2021-03-11 16:59:26.085
115.0, 150468.5625, 187500.0, -187500.015625, -449.33709716796875, -187500.015625, -8707.94921875, -19035.951171875, -9265.53515625, 0.15400001406669617, 0.8960000276565552, 0.33400002121925354, 192.0, 0.0, 0.0, 0.0, 0.0, 0.0, 0.0, 0.0, 0.0, 0.0, 1.615478366085559E9, 2021-03-11 16:59:26.085
116.0, 150245.6875, 187500.0, -187500.015625, -498.0191955566406, -187500.015625, -8897.5361328125, -19240.068359375, -9468.3330078125, 0.15400001406669617, 0.8960000276565552, 0.33400002121925354, 192.0, 0.0, 0.0, 0.0, 0.0, 0.0, 0.0, 0.0, 0.0, 0.0, 1.6154783660855627E9, 2021-03-11 16:59:26.085
117.0, 150602.0, 187500.0, -187500.015625, -809.647216796875, -187500.015625, -8588.3671875, -18914.134765625, -9185.806640625, 0.14800000190734863, 0.8940000534057617, 0.33800002932548523, 192.0, 4.0, 160.0, 27.0, 240.0, 10.0, 144.0, 0.0, 0.0, 0.0, 1.6154783660855663E9, 2021-03-11 16:59:26.085
118.0, 150885.09375, 187500.0, -187500.015625, -864.8113403320312, -187500.015625, -8323.7890625, -18635.51953125, -8924.291015625, 0.14800000190734863, 0.8940000534057617, 0.33800002932548523, 192.0, 0.0, 0.0, 0.0, 0.0, 0.0, 0.0, 0.0, 0.0, 0.0, 1.61547836608557E9, 2021-03-11 16:59:26.085
119.0, 150750.234375, 187500.0, -187500.015625, -715.4122314453125, -187500.015625, -8425.646484375, -18736.818359375, -9003.193359375, 0.14800000190734863, 0.8940000534057617, 0.33800002932548523, 192.0, 0.0, 0.0, 0.0, 0.0, 0.0, 0.0, 0.0, 0.0, 0.0, 1.615478366085574E9, 2021-03-11 16:59:26.085
120.0, 150436.0625, 187500.0, -187500.015625, -464.5362854003906, -187500.015625, -8711.0556640625, -19036.107421875, -9271.9052734375, 0.14800000190734863, 0.8940000534057617, 0.33800002932548523, 192.0, 0.0, 0.0, 0.0, 0.0, 0.0, 0.0, 0.0, 0.0, 0.0, 1.6154783660855808E9, 2021-03-11 16:59:26.085
121.0, 150241.375, 187500.0, -187500.015625, -520.7509155273438, -187500.015625, -8897.9833984375, -19231.462890625, -9469.7412109375, 0.14800000190734863, 0.8940000534057617, 0.33800002932548523, 192.0, 0.0, 0.0, 0.0, 0.0, 0.0, 0.0, 0.0, 0.0, 0.0, 1.6154783660855844E9, 2021-03-11 16:59:26.085
122.0, 150608.703125, 187500.0, -187500.015625, -825.7628173828125, -187500.015625, -8571.46875, -18887.73828125, -9169.3779296875, 0.14800000190734863, 0.8940000534057617, 0.33800002932548523, 192.0, 0.0, 0.0, 0.0, 0.0, 0.0, 0.0, 0.0, 0.0, 0.0, 1.6154783660855873E9, 2021-03-11 16:59:26.085
123.0, 150889.015625, 187500.0, -187500.015625, -862.1961669921875, -187500.015625, -8302.4208984375, -18611.0, -8902.5205078125, 0.14800000190734863, 0.8940000534057617, 0.33800002932548523, 192.0, 0.0, 0.0, 0.0, 0.0, 0.0, 0.0, 0.0, 0.0, 0.0, 1.61547836608559E9, 2021-03-11 16:59:26.085
124.0, 150754.3125, 187500.0, -187500.015625, -702.6717529296875, -187500.015625, -8423.478515625, -18733.443359375, -9000.4658203125, 0.14800000190734863, 0.8940000534057617, 0.33800002932548523, 192.0, 0.0, 0.0, 0.0, 0.0, 0.0, 0.0, 0.0, 0.0, 0.0, 1.615478366085593E9, 2021-03-11 16:59:26.085
125.0, 150431.53125, 187500.0, -187500.015625, -461.18353271484375, -187500.015625, -8715.5263671875, -19033.873046875, -9271.1455078125, 0.14800000190734863, 0.8940000534057617, 0.33800002932548523, 192.0, 0.0, 0.0, 0.0, 0.0, 0.0, 0.0, 0.0, 0.0, 0.0, 1.615478366085596E9, 2021-03-11 16:59:26.085
126.0, 150234.765625, 187500.0, -187500.015625, -529.088134765625, -187500.015625, -8905.806640625, -19224.6015625, -9468.109375, 0.14800000190734863, 0.8940000534057617, 0.33800002932548523, 192.0, 0.0, 0.0, 0.0, 0.0, 0.0, 0.0, 0.0, 0.0, 0.0, 1.6154783660856009E9, 2021-03-11 16:59:26.085
127.0, 150608.828125, 187500.0, -187500.015625, -834.5023193359375, -187500.015625, -8574.017578125, -18875.130859375, -9161.80078125, 0.14400000870227814, 0.9000000357627869, 0.33800002932548523, 192.0, 4.0, 128.0, 28.0, 32.0, 10.0, 144.0, 0.0, 0.0, 0.0, 1.615478366085605E9, 2021-03-11 16:59:26.085
128.0, 150878.421875, 187500.0, -187500.015625, -873.6849365234375, -187500.015625, -8318.40234375, -18617.416015625, -8910.4111328125, 0.14400000870227814, 0.9000000357627869, 0.33800002932548523, 192.0, 0.0, 0.0, 0.0, 0.0, 0.0, 0.0, 0.0, 0.0, 0.0, 1.6154783660856087E9, 2021-03-11 16:59:26.085
129.0, 150762.46875, 187500.0, -187500.015625, -698.1119995117188, -187500.015625, -8433.24609375, -18737.400390625, -9001.5390625, 0.14400000870227814, 0.9000000357627869, 0.33800002932548523, 192.0, 0.0, 0.0, 0.0, 0.0, 0.0, 0.0, 0.0, 0.0, 0.0, 1.6154783660856123E9, 2021-03-11 16:59:26.085
130.0, 150425.0625, 187500.0, -187500.015625, -462.2117004394531, -187500.015625, -8731.9990234375, -19049.921875, -9281.9638671875, 0.14400000870227814, 0.9000000357627869, 0.33800002932548523, 192.0, 0.0, 0.0, 0.0, 0.0, 0.0, 0.0, 0.0, 0.0, 0.0, 1.6154783660856168E9, 2021-03-11 16:59:26.085
131.0, 150245.8125, 187500.0, -187500.015625, -530.4962768554688, -187500.015625, -8889.6015625, -19216.15234375, -9449.4677734375, 0.14400000870227814, 0.9000000357627869, 0.33800002932548523, 192.0, 0.0, 0.0, 0.0, 0.0, 0.0, 0.0, 0.0, 0.0, 0.0, 1.6154783660856197E9, 2021-03-11 16:59:26.085
132.0, 150602.515625, 187500.0, -187500.015625, -833.18359375, -187500.015625, -8573.1455078125, -18893.83984375, -9164.1923828125, 0.14400000870227814, 0.9000000357627869, 0.33800002932548523, 192.0, 0.0, 0.0, 0.0, 0.0, 0.0, 0.0, 0.0, 0.0, 0.0, 1.6154783660856228E9, 2021-03-11 16:59:26.085
133.0, 150877.265625, 187500.0, -187500.015625, -870.5333862304688, -187500.015625, -8320.771484375, -18630.044921875, -8914.6357421875, 0.14400000870227814, 0.9000000357627869, 0.33800002932548523, 192.0, 0.0, 0.0, 0.0, 0.0, 0.0, 0.0, 0.0, 0.0, 0.0, 1.6154783660857148E9, 2021-03-11 16:59:26.085
134.0, 150743.421875, 187500.0, -187500.015625, -704.0128784179688, -187500.015625, -8437.470703125, -18752.041015625, -9011.59765625, 0.14400000870227814, 0.9000000357627869, 0.33800002932548523, 192.0, 0.0, 0.0, 0.0, 0.0, 0.0, 0.0, 0.0, 0.0, 0.0, 1.6154783660857356E9, 2021-03-11 16:59:26.085
135.0, 150414.03125, 187500.0, -187500.015625, -466.5702819824219, -187500.015625, -8735.330078125, -19071.333984375, -9298.146484375, 0.14400000870227814, 0.9000000357627869, 0.33800002932548523, 192.0, 0.0, 0.0, 0.0, 0.0, 0.0, 0.0, 0.0, 0.0, 0.0, 1.615478366085739E9, 2021-03-11 16:59:26.085
136.0, 150244.859375, 187500.0, -187500.015625, -550.1434936523438, -187500.015625, -8899.16796875, -19244.470703125, -9478.4580078125, 0.14600001275539398, 0.8980000615119934, 0.3360000252723694, 192.0, 4.0, 144.0, 28.0, 16.0, 10.0, 128.0, 0.0, 0.0, 0.0, 1.6154783660857449E9, 2021-03-11 16:59:26.085
137.0, 150619.640625, 187500.0, -187500.015625, -860.564453125, -187500.015625, -8566.41796875, -18899.115234375, -9173.580078125, 0.14600001275539398, 0.8980000615119934, 0.3360000252723694, 192.0, 0.0, 0.0, 0.0, 0.0, 0.0, 0.0, 0.0, 0.0, 0.0, 1.615478366085748E9, 2021-03-11 16:59:26.085
138.0, 150888.78125, 187500.0, -187500.015625, -876.5012817382812, -187500.015625, -8314.1337890625, -18635.87890625, -8922.4365234375, 0.14600001275539398, 0.8980000615119934, 0.3360000252723694, 192.0, 0.0, 0.0, 0.0, 0.0, 0.0, 0.0, 0.0, 0.0, 0.0, 1.6154783660857532E9, 2021-03-11 16:59:26.085
139.0, 150747.375, 187500.0, -187500.015625, -708.9749755859375, -187500.015625, -8438.07421875, -18766.009765625, -9026.55078125, 0.14600001275539398, 0.8980000615119934, 0.3360000252723694, 192.0, 0.0, 0.0, 0.0, 0.0, 0.0, 0.0, 0.0, 0.0, 0.0, 1.6154783660857563E9, 2021-03-11 16:59:26.085
140.0, 150431.609375, 187500.0, -187500.015625, -468.917236328125, -187500.015625, -8733.228515625, -19084.142578125, -9309.2998046875, 0.14600001275539398, 0.8980000615119934, 0.3360000252723694, 192.0, 0.0, 0.0, 0.0, 0.0, 0.0, 0.0, 0.0, 0.0, 0.0, 1.6154783660857615E9, 2021-03-11 16:59:26.085
141.0, 150291.3125, 187500.0, -187500.015625, -549.22705078125, -187500.015625, -8884.9072265625, -19246.953125, -9475.7314453125, 0.14600001275539398, 0.8980000615119934, 0.3360000252723694, 192.0, 0.0, 0.0, 0.0, 0.0, 0.0, 0.0, 0.0, 0.0, 0.0, 1.6154783660857675E9, 2021-03-11 16:59:26.085
142.0, 150644.40625, 187500.0, -187500.015625, -850.1708984375, -187500.015625, -8539.86328125, -18880.00390625, -9153.53125, 0.14600001275539398, 0.8980000615119934, 0.3360000252723694, 192.0, 0.0, 0.0, 0.0, 0.0, 0.0, 0.0, 0.0, 0.0, 0.0, 1.6154783660857737E9, 2021-03-11 16:59:26.085
143.0, 150900.046875, 187500.0, -187500.015625, -871.8074340820312, -187500.015625, -8302.533203125, -18632.056640625, -8919.150390625, 0.14600001275539398, 0.8980000615119934, 0.3360000252723694, 192.0, 0.0, 0.0, 0.0, 0.0, 0.0, 0.0, 0.0, 0.0, 0.0, 1.6154783660857909E9, 2021-03-11 16:59:26.085
144.0, 150766.171875, 187500.0, -187500.015625, -689.5289306640625, -187500.015625, -8433.759765625, -18765.919921875, -9026.8408203125, 0.14600001275539398, 0.8980000615119934, 0.3360000252723694, 192.0, 0.0, 0.0, 0.0, 0.0, 0.0, 0.0, 0.0, 0.0, 0.0, 1.6154783660857973E9, 2021-03-11 16:59:26.085
145.0, 150415.203125, 187500.0, -187500.015625, -461.63055419921875, -187500.015625, -8725.181640625, -19077.056640625, -9302.7734375, 0.14600001275539398, 0.8980000615119934, 0.3360000252723694, 192.0, 0.0, 0.0, 0.0, 0.0, 0.0, 0.0, 0.0, 0.0, 0.0, 1.6154783660858014E9, 2021-03-11 16:59:26.085
146.0, 150270.84375, 187500.0, -187500.015625, -546.5448608398438, -187500.015625, -8872.994140625, -19233.36328125, -9463.169921875, 0.14400000870227814, 0.8960000276565552, 0.3360000252723694, 192.0, 4.0, 128.0, 28.0, 0.0, 10.0, 128.0, 0.0, 0.0, 0.0, 1.6154783660858047E9, 2021-03-11 16:59:26.085
147.0, 150657.25, 187500.0, -187500.015625, -850.9085083007812, -187500.015625, -8523.591796875, -18864.693359375, -9136.6103515625, 0.14400000870227814, 0.8960000276565552, 0.3360000252723694, 192.0, 0.0, 0.0, 0.0, 0.0, 0.0, 0.0, 0.0, 0.0, 0.0, 1.6154783660858076E9, 2021-03-11 16:59:26.085
148.0, 150898.75, 187500.0, -187500.015625, -869.86279296875, -187500.015625, -8299.224609375, -18633.708984375, -8913.6298828125, 0.14400000870227814, 0.8960000276565552, 0.3360000252723694, 192.0, 0.0, 0.0, 0.0, 0.0, 0.0, 0.0, 0.0, 0.0, 0.0, 1.6154783660858107E9, 2021-03-11 16:59:26.085
149.0, 150731.578125, 187500.0, -187500.015625, -705.7339477539062, -187500.015625, -8442.521484375, -18775.12890625, -9035.111328125, 0.14400000870227814, 0.8960000276565552, 0.3360000252723694, 192.0, 0.0, 0.0, 0.0, 0.0, 0.0, 0.0, 0.0, 0.0, 0.0, 1.6154783660858135E9, 2021-03-11 16:59:26.085
150.0, 150398.71875, 187500.0, -187500.015625, -486.19512939453125, -187500.015625, -8747.734375, -19097.017578125, -9325.416015625, 0.14400000870227814, 0.8960000276565552, 0.3360000252723694, 192.0, 0.0, 0.0, 0.0, 0.0, 0.0, 0.0, 0.0, 0.0, 0.0, 1.6154783660858166E9, 2021-03-11 16:59:26.085
151.0, 150277.296875, 187500.0, -187500.015625, -585.7721557617188, -187500.015625, -8882.962890625, -19236.8046875, -9473.00390625, 0.14400000870227814, 0.8960000276565552, 0.3360000252723694, 192.0, 0.0, 0.0, 0.0, 0.0, 0.0, 0.0, 0.0, 0.0, 0.0, 1.6154783660858188E9, 2021-03-11 16:59:26.085
152.0, 150656.8125, 187500.0, -187500.015625, -881.06103515625, -187500.015625, -8541.2275390625, -18879.53515625, -9156.4365234375, 0.14400000870227814, 0.8960000276565552, 0.3360000252723694, 192.0, 0.0, 0.0, 0.0, 0.0, 0.0, 0.0, 0.0, 0.0, 0.0, 1.6154783660858226E9, 2021-03-11 16:59:26.085
153.0, 150897.578125, 187500.0, -187500.015625, -882.8938598632812, -187500.015625, -8323.275390625, -18650.96484375, -8937.478515625, 0.14400000870227814, 0.8960000276565552, 0.3360000252723694, 192.0, 0.0, 0.0, 0.0, 0.0, 0.0, 0.0, 0.0, 0.0, 0.0, 1.6154783665650215E9, 2021-03-11 16:59:26.565
154.0, 150744.71875, 187500.0, -187500.015625, -710.7631225585938, -187500.015625, -8460.291015625, -18788.853515625, -9052.166015625, 0.14400000870227814, 0.8960000276565552, 0.3360000252723694, 192.0, 0.0, 0.0, 0.0, 0.0, 0.0, 0.0, 0.0, 0.0, 0.0, 1.615478366565045E9, 2021-03-11 16:59:26.565
155.0, 150419.28125, 187500.0, -187500.015625, -482.4847412109375, -187500.015625, -8761.1240234375, -19099.990234375, -9334.7587890625, 0.14400000870227814, 0.8960000276565552, 0.3360000252723694, 192.0, 0.0, 0.0, 0.0, 0.0, 0.0, 0.0, 0.0, 0.0, 0.0, 1.6154783665650637E9, 2021-03-11 16:59:26.565
156.0, 150274.78125, 187500.0, -187500.015625, -587.157958984375, -187500.015625, -8882.26953125, -19235.5078125, -9473.7646484375, 0.14400000870227814, 0.8980000615119934, 0.33800002932548523, 192.0, 4.0, 128.0, 28.0, 16.0, 10.0, 144.0, 0.0, 0.0, 0.0, 1.615478366565096E9, 2021-03-11 16:59:26.565
157.0, 150656.421875, 187500.0, -187500.015625, -884.2796630859375, -187500.015625, -8528.2412109375, -18868.58203125, -9147.763671875, 0.14400000870227814, 0.8980000615119934, 0.33800002932548523, 192.0, 0.0, 0.0, 0.0, 0.0, 0.0, 0.0, 0.0, 0.0, 0.0, 1.6154783665651088E9, 2021-03-11 16:59:26.565
158.0, 150889.421875, 187500.0, -187500.015625, -881.709228515625, -187500.015625, -8314.2001953125, -18647.880859375, -8935.2431640625, 0.14400000870227814, 0.8980000615119934, 0.33800002932548523, 192.0, 0.0, 0.0, 0.0, 0.0, 0.0, 0.0, 0.0, 0.0, 0.0, 1.6154783665651438E9, 2021-03-11 16:59:26.565
159.0, 150727.375, 187500.0, -187500.015625, -711.7018432617188, -187500.015625, -8463.5322265625, -18803.78515625, -9065.1962890625, 0.14400000870227814, 0.8980000615119934, 0.33800002932548523, 192.0, 0.0, 0.0, 0.0, 0.0, 0.0, 0.0, 0.0, 0.0, 0.0, 1.615478366565199E9, 2021-03-11 16:59:26.565
160.0, 150389.59375, 187500.0, -187500.015625, -487.9609069824219, -187500.015625, -8764.8115234375, -19116.41796875, -9352.3720703125, 0.14400000870227814, 0.8980000615119934, 0.33800002932548523, 192.0, 0.0, 0.0, 0.0, 0.0, 0.0, 0.0, 0.0, 0.0, 0.0, 1.6154783665652049E9, 2021-03-11 16:59:26.565
161.0, 150272.109375, 187500.0, -187500.015625, -595.9198608398438, -187500.015625, -8877.9111328125, -19238.97265625, -9480.4248046875, 0.14400000870227814, 0.8980000615119934, 0.33800002932548523, 192.0, 0.0, 0.0, 0.0, 0.0, 0.0, 0.0, 0.0, 0.0, 0.0, 1.6154783665652082E9, 2021-03-11 16:59:26.565
162.0, 150670.109375, 187500.0, -187500.015625, -896.103759765625, -187500.015625, -8515.052734375, -18855.751953125, -9140.3212890625, 0.14400000870227814, 0.8980000615119934, 0.33800002932548523, 192.0, 0.0, 0.0, 0.0, 0.0, 0.0, 0.0, 0.0, 0.0, 0.0, 1.6154783665652108E9, 2021-03-11 16:59:26.565
163.0, 150899.265625, 187500.0, -187500.015625, -891.2757568359375, -187500.015625, -8302.0185546875, -18627.09375, -8921.2734375, 0.14400000870227814, 0.8980000615119934, 0.33800002932548523, 192.0, 0.0, 0.0, 0.0, 0.0, 0.0, 0.0, 0.0, 0.0, 0.0, 1.6154783665652149E9, 2021-03-11 16:59:26.565
164.0, 150736.0, 187500.0, -187500.015625, -705.15283203125, -187500.015625, -8449.25, -18783.310546875, -9045.3486328125, 0.14400000870227814, 0.8980000615119934, 0.33800002932548523, 192.0, 0.0, 0.0, 0.0, 0.0, 0.0, 0.0, 0.0, 0.0, 0.0, 1.6154783665652175E9, 2021-03-11 16:59:26.565
165.0, 150387.875, 187500.0, -187500.015625, -494.1747131347656, -187500.015625, -8754.73046875, -19106.830078125, -9334.84765625, 0.14400000870227814, 0.8980000615119934, 0.33800002932548523, 192.0, 0.0, 0.0, 0.0, 0.0, 0.0, 0.0, 0.0, 0.0, 0.0, 1.6154783665652206E9, 2021-03-11 16:59:26.565
166.0, 150283.359375, 187500.0, -187500.015625, -594.5340576171875, -187500.015625, -8851.0888671875, -19208.6640625, -9444.2822265625, 0.1420000046491623, 0.8940000534057617, 0.3440000116825104, 192.0, 4.0, 112.0, 27.0, 240.0, 10.0, 192.0, 0.0, 0.0, 0.0, 1.6154783665652292E9, 2021-03-11 16:59:26.565
167.0, 150678.015625, 187500.0, -187500.015625, -899.0094604492188, -187500.015625, -8498.53515625, -18835.859375, -9114.1689453125, 0.1420000046491623, 0.8940000534057617, 0.3440000116825104, 192.0, 0.0, 0.0, 0.0, 0.0, 0.0, 0.0, 0.0, 0.0, 0.0, 1.6154783665652318E9, 2021-03-11 16:59:26.565
168.0, 150884.96875, 187500.0, -187500.015625, -892.05810546875, -187500.015625, -8302.533203125, -18632.615234375, -8917.7197265625, 0.1420000046491623, 0.8940000534057617, 0.3440000116825104, 192.0, 0.0, 0.0, 0.0, 0.0, 0.0, 0.0, 0.0, 0.0, 0.0, 1.6154783665652344E9, 2021-03-11 16:59:26.565
169.0, 150715.1875, 187500.0, -187500.015625, -710.94189453125, -187500.015625, -8453.8095703125, -18779.95703125, -9044.3203125, 0.1420000046491623, 0.8940000534057617, 0.3440000116825104, 192.0, 0.0, 0.0, 0.0, 0.0, 0.0, 0.0, 0.0, 0.0, 0.0, 1.6154783665652413E9, 2021-03-11 16:59:26.565
170.0, 150371.59375, 187500.0, -187500.015625, -507.7645568847656, -187500.015625, -8770.2431640625, -19115.76953125, -9351.34375, 0.1420000046491623, 0.8940000534057617, 0.3440000116825104, 192.0, 0.0, 0.0, 0.0, 0.0, 0.0, 0.0, 0.0, 0.0, 0.0, 1.615478366565246E9, 2021-03-11 16:59:26.565
171.0, 150281.96875, 187500.0, -187500.015625, -647.7982177734375, -187500.015625, -8871.7421875, -19228.466796875, -9476.021484375, 0.1420000046491623, 0.8940000534057617, 0.3440000116825104, 192.0, 0.0, 0.0, 0.0, 0.0, 0.0, 0.0, 0.0, 0.0, 0.0, 1.6154783665652487E9, 2021-03-11 16:59:26.565
172.0, 150689.625, 187500.0, -187500.015625, -931.7994995117188, -187500.015625, -8502.0224609375, -18840.26171875, -9130.93359375, 0.1420000046491623, 0.8940000534057617, 0.3440000116825104, 192.0, 0.0, 0.0, 0.0, 0.0, 0.0, 0.0, 0.0, 0.0, 0.0, 1.6154783665653112E9, 2021-03-11 16:59:26.565
173.0, 150867.984375, 187500.0, -187500.015625, -914.0521850585938, -187500.015625, -8308.9482421875, -18653.8046875, -8940.228515625, 0.1420000046491623, 0.8940000534057617, 0.3440000116825104, 192.0, 0.0, 0.0, 0.0, 0.0, 0.0, 0.0, 0.0, 0.0, 0.0, 1.6154783665653148E9, 2021-03-11 16:59:26.565
174.0, 150687.1875, 187500.0, -187500.015625, -742.7708129882812, -187500.015625, -8473.166015625, -18809.416015625, -9079.546875, 0.1420000046491623, 0.8940000534057617, 0.3440000116825104, 192.0, 0.0, 0.0, 0.0, 0.0, 0.0, 0.0, 0.0, 0.0, 0.0, 1.6154783665653176E9, 2021-03-11 16:59:26.565
175.0, 150319.8125, 187500.0, -187500.015625, -539.5711059570312, -187500.015625, -8782.3798828125, -19114.0703125, -9369.001953125, 0.1420000046491623, 0.8940000534057617, 0.3440000116825104, 192.0, 0.0, 0.0, 0.0, 0.0, 0.0, 0.0, 0.0, 0.0, 0.0, 1.6154783665653205E9, 2021-03-11 16:59:26.565
176.0, 150231.03125, 187500.0, -187500.015625, -668.2277221679688, -187500.015625, -8866.7578125, -19211.2109375, -9474.4794921875, 0.1420000046491623, 0.8880000710487366, 0.33800002932548523, 192.0, 4.0, 112.0, 27.0, 192.0, 10.0, 144.0, 0.0, 0.0, 0.0, 1.6154783665653229E9, 2021-03-11 16:59:26.565
177.0, 150639.546875, 187500.0, -187500.015625, -949.3455810546875, -187500.015625, -8491.740234375, -18828.21484375, -9128.83203125, 0.1420000046491623, 0.8880000710487366, 0.33800002932548523, 192.0, 0.0, 0.0, 0.0, 0.0, 0.0, 0.0, 0.0, 0.0, 0.0, 1.6154783665653255E9, 2021-03-11 16:59:26.565
178.0, 150827.0, 187500.0, -187500.015625, -929.4972534179688, -187500.015625, -8315.7646484375, -18624.322265625, -8941.255859375, 0.1420000046491623, 0.8880000710487366, 0.33800002932548523, 192.0, 0.0, 0.0, 0.0, 0.0, 0.0, 0.0, 0.0, 0.0, 0.0, 1.615478366565328E9, 2021-03-11 16:59:26.565
179.0, 150647.484375, 187500.0, -187500.015625, -753.968994140625, -187500.015625, -8477.6591796875, -18790.640625, -9079.904296875, 0.1420000046491623, 0.8880000710487366, 0.33800002932548523, 192.0, 0.0, 0.0, 0.0, 0.0, 0.0, 0.0, 0.0, 0.0, 0.0, 1.6154783665653307E9, 2021-03-11 16:59:26.565
180.0, 150309.28125, 187500.0, -187500.015625, -560.9169921875, -187500.015625, -8786.380859375, -19118.474609375, -9376.66796875, 0.1420000046491623, 0.8880000710487366, 0.33800002932548523, 192.0, 0.0, 0.0, 0.0, 0.0, 0.0, 0.0, 0.0, 0.0, 0.0, 1.6154783665653331E9, 2021-03-11 16:59:26.565
181.0, 150234.03125, 187500.0, -187500.015625, -674.709716796875, -187500.015625, -8851.6484375, -19195.833984375, -9463.080078125, 0.1420000046491623, 0.8880000710487366, 0.33800002932548523, 192.0, 0.0, 0.0, 0.0, 0.0, 0.0, 0.0, 0.0, 0.0, 0.0, 1.6154783665653358E9, 2021-03-11 16:59:26.565
182.0, 150626.125, 187500.0, -187500.015625, -971.5855712890625, -187500.015625, -8499.7421875, -18830.830078125, -9134.8671875, 0.1420000046491623, 0.8880000710487366, 0.33800002932548523, 192.0, 0.0, 0.0, 0.0, 0.0, 0.0, 0.0, 0.0, 0.0, 0.0, 1.6154783665653384E9, 2021-03-11 16:59:26.565
183.0, 150807.03125, 187500.0, -187500.015625, -951.0890502929688, -187500.015625, -8331.478515625, -18654.921875, -8959.9873046875, 0.1420000046491623, 0.8880000710487366, 0.33800002932548523, 192.0, 0.0, 0.0, 0.0, 0.0, 0.0, 0.0, 0.0, 0.0, 0.0, 1.615478366565341E9, 2021-03-11 16:59:26.565
184.0, 150623.6875, 187500.0, -187500.015625, -762.9544067382812, -187500.015625, -8499.3173828125, -18829.82421875, -9104.513671875, 0.1420000046491623, 0.8880000710487366, 0.33800002932548523, 192.0, 0.0, 0.0, 0.0, 0.0, 0.0, 0.0, 0.0, 0.0, 0.0, 1.6154783665653448E9, 2021-03-11 16:59:26.565
185.0, 150275.59375, 187500.0, -187500.015625, -572.2269897460938, -187500.015625, -8813.9853515625, -19162.150390625, -9406.59765625, 0.1420000046491623, 0.8880000710487366, 0.33800002932548523, 192.0, 0.0, 0.0, 0.0, 0.0, 0.0, 0.0, 0.0, 0.0, 0.0, 1.6154783665653477E9, 2021-03-11 16:59:26.565
186.0, 150216.484375, 187500.0, -187500.015625, -708.192626953125, -187500.015625, -8878.380859375, -19230.92578125, -9488.740234375, 0.1420000046491623, 0.89000004529953, 0.3400000035762787, 192.0, 4.0, 112.0, 27.0, 208.0, 10.0, 160.0, 0.0, 0.0, 0.0, 1.6154783665653508E9, 2021-03-11 16:59:26.565
187.0, 150618.65625, 187500.0, -187500.015625, -993.2221069335938, -187500.015625, -8510.5380859375, -18839.48046875, -9142.623046875, 0.1420000046491623, 0.89000004529953, 0.3400000035762787, 192.0, 0.0, 0.0, 0.0, 0.0, 0.0, 0.0, 0.0, 0.0, 0.0, 1.6154783665653536E9, 2021-03-11 16:59:26.565
188.0, 150793.953125, 187500.0, -187500.015625, -965.4388427734375, -187500.015625, -8345.828125, -18668.376953125, -8974.314453125, 0.1420000046491623, 0.89000004529953, 0.3400000035762787, 192.0, 0.0, 0.0, 0.0, 0.0, 0.0, 0.0, 0.0, 0.0, 0.0, 1.6154783665653565E9, 2021-03-11 16:59:26.565
189.0, 150614.09375, 187500.0, -187500.015625, -779.7852783203125, -187500.015625, -8509.1748046875, -18835.8359375, -9113.4091796875, 0.1420000046491623, 0.89000004529953, 0.3400000035762787, 192.0, 0.0, 0.0, 0.0, 0.0, 0.0, 0.0, 0.0, 0.0, 0.0, 1.6154783665653589E9, 2021-03-11 16:59:26.565
190.0, 150262.28125, 187500.0, -187500.015625, -577.4349365234375, -187500.015625, -8817.2939453125, -19167.6484375, -9416.1640625, 0.1420000046491623, 0.89000004529953, 0.3400000035762787, 192.0, 0.0, 0.0, 0.0, 0.0, 0.0, 0.0, 0.0, 0.0, 0.0, 1.615478366565364E9, 2021-03-11 16:59:26.565
191.0, 150206.75, 187500.0, -187500.015625, -725.13525390625, -187500.015625, -8877.1962890625, -19235.708984375, -9497.2783203125, 0.1420000046491623, 0.89000004529953, 0.3400000035762787, 192.0, 0.0, 0.0, 0.0, 0.0, 0.0, 0.0, 0.0, 0.0, 0.0, 1.6154783665653665E9, 2021-03-11 16:59:26.565
192.0, 150621.765625, 187500.0, -187500.015625, -1007.1695556640625, -187500.015625, -8499.6748046875, -18834.673828125, -9141.21484375, 0.1420000046491623, 0.89000004529953, 0.3400000035762787, 192.0, 0.0, 0.0, 0.0, 0.0, 0.0, 0.0, 0.0, 0.0, 0.0, 1.6154783665653691E9, 2021-03-11 16:59:26.565
193.0, 150789.328125, 187500.0, -187500.015625, -967.4058227539062, -187500.015625, -8343.5927734375, -18672.712890625, -8980.349609375, 0.1420000046491623, 0.89000004529953, 0.3400000035762787, 192.0, 0.0, 0.0, 0.0, 0.0, 0.0, 0.0, 0.0, 0.0, 0.0, 1.615478366565372E9, 2021-03-11 16:59:26.565
194.0, 150598.53125, 187500.0, -187500.015625, -786.8260498046875, -187500.015625, -8518.80859375, -18850.3203125, -9130.7099609375, 0.1420000046491623, 0.89000004529953, 0.3400000035762787, 192.0, 0.0, 0.0, 0.0, 0.0, 0.0, 0.0, 0.0, 0.0, 0.0, 1.6154783665653749E9, 2021-03-11 16:59:26.565
195.0, 150273.96875, 187500.0, -187500.015625, -584.0286865234375, -187500.015625, -8822.0986328125, -19168.720703125, -9421.416015625, 0.1420000046491623, 0.89000004529953, 0.3400000035762787, 192.0, 0.0, 0.0, 0.0, 0.0, 0.0, 0.0, 0.0, 0.0, 0.0, 1.6154783665653775E9, 2021-03-11 16:59:26.565
196.0, 150213.0625, 187500.0, -187500.015625, -731.7737426757812, -187500.015625, -8866.1767578125, -19212.75390625, -9482.4365234375, 0.1340000033378601, 0.8960000276565552, 0.3400000035762787, 192.0, 4.0, 48.0, 28.0, 0.0, 10.0, 160.0, 0.0, 0.0, 0.0, 1.6154783665653803E9, 2021-03-11 16:59:26.565
197.0, 150612.171875, 187500.0, -187500.015625, -1003.1015625, -187500.015625, -8493.9755859375, -18822.58203125, -9132.296875, 0.1340000033378601, 0.8960000276565552, 0.3400000035762787, 192.0, 0.0, 0.0, 0.0, 0.0, 0.0, 0.0, 0.0, 0.0, 0.0, 1.6154783665653832E9, 2021-03-11 16:59:26.565
198.0, 150778.0, 187500.0, -187500.015625, -961.9072875976562, -187500.015625, -8348.689453125, -18673.853515625, -8980.4609375, 0.1340000033378601, 0.8960000276565552, 0.3400000035762787, 192.0, 0.0, 0.0, 0.0, 0.0, 0.0, 0.0, 0.0, 0.0, 0.0, 1.6154783665653863E9, 2021-03-11 16:59:26.565
199.0, 150592.84375, 187500.0, -187500.015625, -767.8047485351562, -187500.015625, -8519.2998046875, -18846.810546875, -9123.087890625, 0.1340000033378601, 0.8960000276565552, 0.3400000035762787, 192.0, 0.0, 0.0, 0.0, 0.0, 0.0, 0.0, 0.0, 0.0, 0.0, 1.6154783665653892E9, 2021-03-11 16:59:26.565
200.0, 150250.875, 187500.0, -187500.015625, -587.0462036132812, -187500.015625, -8836.8955078125, -19183.853515625, -9432.0107421875, 0.1340000033378601, 0.8960000276565552, 0.3400000035762787, 192.0, 0.0, 0.0, 0.0, 0.0, 0.0, 0.0, 0.0, 0.0, 0.0, 1.6154783665653915E9, 2021-03-11 16:59:26.565
201.0, 150206.4375, 187500.0, -187500.015625, -741.4967651367188, -187500.015625, -8882.158203125, -19227.484375, -9496.2724609375, 0.1340000033378601, 0.8960000276565552, 0.3400000035762787, 192.0, 0.0, 0.0, 0.0, 0.0, 0.0, 0.0, 0.0, 0.0, 0.0, 1.6154783665653942E9, 2021-03-11 16:59:26.565
202.0, 150625.109375, 187500.0, -187500.015625, -1021.38525390625, -187500.015625, -8497.619140625, -18816.814453125, -9130.955078125, 0.1340000033378601, 0.8960000276565552, 0.3400000035762787, 192.0, 0.0, 0.0, 0.0, 0.0, 0.0, 0.0, 0.0, 0.0, 0.0, 1.6154783665653975E9, 2021-03-11 16:59:26.565
203.0, 150783.484375, 187500.0, -187500.015625, -967.7410888671875, -187500.015625, -8357.96484375, -18670.947265625, -8984.5517578125, 0.1340000033378601, 0.8960000276565552, 0.3400000035762787, 192.0, 0.0, 0.0, 0.0, 0.0, 0.0, 0.0, 0.0, 0.0, 0.0, 1.6154783665654E9, 2021-03-11 16:59:26.565
204.0, 150587.515625, 187500.0, -187500.015625, -770.21875, -187500.015625, -8540.5341796875, -18856.064453125, -9140.3876953125, 0.1340000033378601, 0.8960000276565552, 0.3400000035762787, 192.0, 0.0, 0.0, 0.0, 0.0, 0.0, 0.0, 0.0, 0.0, 0.0, 1.6154783665654027E9, 2021-03-11 16:59:26.565
205.0, 150250.4375, 187500.0, -187500.015625, -591.7177124023438, -187500.015625, -8857.75, -19197.734375, -9449.0654296875, 0.1340000033378601, 0.8960000276565552, 0.3400000035762787, 192.0, 0.0, 0.0, 0.0, 0.0, 0.0, 0.0, 0.0, 0.0, 0.0, 1.6154783665654051E9, 2021-03-11 16:59:26.565
206.0, 150229.484375, 187500.0, -187500.015625, -756.9641723632812, -187500.015625, -8887.9248046875, -19235.888671875, -9501.390625, 0.1380000114440918, 0.9000000357627869, 0.3400000035762787, 192.0, 4.0, 80.0, 28.0, 32.0, 10.0, 160.0, 0.0, 0.0, 0.0, 1.6154783665654087E9, 2021-03-11 16:59:26.565
207.0, 150679.765625, 187500.0, -187500.015625, -1025.6767578125, -187500.015625, -8482.3974609375, -18813.841796875, -9118.7734375, 0.1380000114440918, 0.9000000357627869, 0.3400000035762787, 192.0, 0.0, 0.0, 0.0, 0.0, 0.0, 0.0, 0.0, 0.0, 0.0, 1.6154783665654113E9, 2021-03-11 16:59:26.565
208.0, 150825.609375, 187500.0, -187500.015625, -955.5370483398438, -187500.015625, -8345.6044921875, -18666.857421875, -8972.4150390625, 0.1380000114440918, 0.9000000357627869, 0.3400000035762787, 192.0, 0.0, 0.0, 0.0, 0.0, 0.0, 0.0, 0.0, 0.0, 0.0, 1.615478366565414E9, 2021-03-11 16:59:26.565
209.0, 150629.046875, 187500.0, -187500.015625, -759.4228515625, -187500.015625, -8521.7587890625, -18859.552734375, -9126.306640625, 0.1380000114440918, 0.9000000357627869, 0.3400000035762787, 192.0, 0.0, 0.0, 0.0, 0.0, 0.0, 0.0, 0.0, 0.0, 0.0, 1.6154783665654168E9, 2021-03-11 16:59:26.565
210.0, 150299.453125, 187500.0, -187500.015625, -579.6030883789062, -187500.015625, -8841.09765625, -19192.302734375, -9431.2509765625, 0.1380000114440918, 0.9000000357627869, 0.3400000035762787, 192.0, 0.0, 0.0, 0.0, 0.0, 0.0, 0.0, 0.0, 0.0, 0.0, 1.6154783665654197E9, 2021-03-11 16:59:26.565
211.0, 150297.4375, 187500.0, -187500.015625, -754.0360717773438, -187500.015625, -8855.4033203125, -19204.55078125, -9468.578125, 0.1380000114440918, 0.9000000357627869, 0.3400000035762787, 192.0, 0.0, 0.0, 0.0, 0.0, 0.0, 0.0, 0.0, 0.0, 0.0, 1.6154783665654223E9, 2021-03-11 16:59:26.565
212.0, 150731.234375, 187500.0, -187500.015625, -1021.4523315429688, -187500.015625, -8469.232421875, -18794.8203125, -9105.3408203125, 0.1380000114440918, 0.9000000357627869, 0.3400000035762787, 192.0, 0.0, 0.0, 0.0, 0.0, 0.0, 0.0, 0.0, 0.0, 0.0, 1.615478366565425E9, 2021-03-11 16:59:26.565
213.0, 150847.453125, 187500.0, -187500.015625, -970.1997680664062, -187500.015625, -8350.5, -18668.19921875, -8981.712890625, 0.1380000114440918, 0.9000000357627869, 0.3400000035762787, 192.0, 0.0, 0.0, 0.0, 0.0, 0.0, 0.0, 0.0, 0.0, 0.0, 1.6154783665654297E9, 2021-03-11 16:59:26.565
214.0, 150638.1875, 187500.0, -187500.015625, -780.0758666992188, -187500.015625, -8540.869140625, -18867.95703125, -9151.720703125, 0.1380000114440918, 0.9000000357627869, 0.3400000035762787, 192.0, 0.0, 0.0, 0.0, 0.0, 0.0, 0.0, 0.0, 0.0, 0.0, 1.6154783665654323E9, 2021-03-11 16:59:26.565
215.0, 150292.296875, 187500.0, -187500.015625, -602.4241943359375, -187500.015625, -8857.0791015625, -19198.828125, -9457.3583984375, 0.1380000114440918, 0.9000000357627869, 0.3400000035762787, 192.0, 0.0, 0.0, 0.0, 0.0, 0.0, 0.0, 0.0, 0.0, 0.0, 1.615478366565435E9, 2021-03-11 16:59:26.565
216.0, 150301.796875, 187500.0, -187500.015625, -780.656982421875, -187500.015625, -8856.2529296875, -19194.42578125, -9477.5419921875, 0.13600000739097595, 0.8920000195503235, 0.34200000762939453, 192.0, 4.0, 64.0, 27.0, 224.0, 10.0, 176.0, 0.0, 0.0, 0.0, 1.6154783665654378E9, 2021-03-11 16:59:26.565
217.0, 150737.28125, 187500.0, -187500.015625, -1050.4873046875, -187500.015625, -8457.6982421875, -18766.30078125, -9097.47265625, 0.13600000739097595, 0.8920000195503235, 0.34200000762939453, 192.0, 0.0, 0.0, 0.0, 0.0, 0.0, 0.0, 0.0, 0.0, 0.0, 1.615478366565441E9, 2021-03-11 16:59:26.565
218.0, 150848.671875, 187500.0, -187500.015625, -977.464111328125, -187500.015625, -8345.1572265625, -18649.53515625, -8977.2197265625, 0.13600000739097595, 0.8920000195503235, 0.34200000762939453, 192.0, 0.0, 0.0, 0.0, 0.0, 0.0, 0.0, 0.0, 0.0, 0.0, 1.6154783665654435E9, 2021-03-11 16:59:26.565
219.0, 150631.625, 187500.0, -187500.015625, -777.5501098632812, -187500.015625, -8534.9912109375, -18844.576171875, -9140.455078125, 0.13600000739097595, 0.8920000195503235, 0.34200000762939453, 192.0, 0.0, 0.0, 0.0, 0.0, 0.0, 0.0, 0.0, 0.0, 0.0, 1.6154783665654466E9, 2021-03-11 16:59:26.565
220.0, 150291.140625, 187500.0, -187500.015625, -613.7118530273438, -187500.015625, -8847.06640625, -19175.650390625, -9443.3662109375, 0.13600000739097595, 0.8920000195503235, 0.34200000762939453, 192.0, 0.0, 0.0, 0.0, 0.0, 0.0, 0.0, 0.0, 0.0, 0.0, 1.6154783665654497E9, 2021-03-11 16:59:26.565
221.0, 150315.953125, 187500.0, -187500.015625, -790.7823486328125, -187500.015625, -8836.76171875, -19165.48046875, -9454.162109375, 0.13600000739097595, 0.8920000195503235, 0.34200000762939453, 192.0, 0.0, 0.0, 0.0, 0.0, 0.0, 0.0, 0.0, 0.0, 0.0, 1.6154783665654523E9, 2021-03-11 16:59:26.565
222.0, 150743.25, 187500.0, -187500.015625, -1061.5067138671875, -187500.015625, -8454.5693359375, -18755.458984375, -9092.0634765625, 0.13600000739097595, 0.8920000195503235, 0.34200000762939453, 192.0, 0.0, 0.0, 0.0, 0.0, 0.0, 0.0, 0.0, 0.0, 0.0, 1.615478366565455E9, 2021-03-11 16:59:26.565
223.0, 150848.34375, 187500.0, -187500.015625, -989.60107421875, -187500.015625, -8355.685546875, -18661.42578125, -8986.3173828125, 0.13600000739097595, 0.8920000195503235, 0.34200000762939453, 192.0, 0.0, 0.0, 0.0, 0.0, 0.0, 0.0, 0.0, 0.0, 0.0, 1.6154783665654576E9, 2021-03-11 16:59:26.565
224.0, 150629.046875, 187500.0, -187500.015625, -781.7969360351562, -187500.015625, -8552.2021484375, -18872.44921875, -9158.11328125, 0.13600000739097595, 0.8920000195503235, 0.34200000762939453, 192.0, 0.0, 0.0, 0.0, 0.0, 0.0, 0.0, 0.0, 0.0, 0.0, 1.6154783665654604E9, 2021-03-11 16:59:26.565
225.0, 150300.796875, 187500.0, -187500.015625, -619.2103271484375, -187500.015625, -8856.23046875, -19180.8359375, -9448.73046875, 0.13600000739097595, 0.8920000195503235, 0.34200000762939453, 192.0, 0.0, 0.0, 0.0, 0.0, 0.0, 0.0, 0.0, 0.0, 0.0, 1.6154783665654633E9, 2021-03-11 16:59:26.565
226.0, 150340.578125, 187500.0, -187500.015625, -800.0136108398438, -187500.015625, -8833.2080078125, -19156.5625, -9446.427734375, 0.14000000059604645, 0.8860000371932983, 0.34200000762939453, 192.0, 4.0, 96.0, 27.0, 176.0, 10.0, 176.0, 0.0, 0.0, 0.0, 1.615478366565466E9, 2021-03-11 16:59:26.565
227.0, 150766.109375, 187500.0, -187500.015625, -1059.2938232421875, -187500.015625, -8459.8671875, -18773.7890625, -9097.7412109375, 0.14000000059604645, 0.8860000371932983, 0.34200000762939453, 192.0, 0.0, 0.0, 0.0, 0.0, 0.0, 0.0, 0.0, 0.0, 0.0, 1.6154783665654683E9, 2021-03-11 16:59:26.565
228.0, 150891.34375, 187500.0, -187500.015625, -979.9227905273438, -187500.015625, -8352.0419921875, -18663.080078125, -8980.953125, 0.14000000059604645, 0.8860000371932983, 0.34200000762939453, 192.0, 0.0, 0.0, 0.0, 0.0, 0.0, 0.0, 0.0, 0.0, 0.0, 1.6154783665654712E9, 2021-03-11 16:59:26.565
229.0, 150644.625, 187500.0, -187500.015625, -767.6929931640625, -187500.015625, -8551.3076171875, -18864.849609375, -9153.552734375, 0.14000000059604645, 0.8860000371932983, 0.34200000762939453, 192.0, 0.0, 0.0, 0.0, 0.0, 0.0, 0.0, 0.0, 0.0, 0.0, 1.6154783665654736E9, 2021-03-11 16:59:26.565
230.0, 150304.484375, 187500.0, -187500.015625, -610.8955078125, -187500.015625, -8865.5732421875, -19202.31640625, -9463.884765625, 0.14000000059604645, 0.8860000371932983, 0.34200000762939453, 192.0, 0.0, 0.0, 0.0, 0.0, 0.0, 0.0, 0.0, 0.0, 0.0, 1.6154783665654764E9, 2021-03-11 16:59:26.565
231.0, 150349.34375, 187500.0, -187500.015625, -800.3936157226562, -187500.015625, -8838.3486328125, -19184.14453125, -9466.052734375, 0.14000000059604645, 0.8860000371932983, 0.34200000762939453, 192.0, 0.0, 0.0, 0.0, 0.0, 0.0, 0.0, 0.0, 0.0, 0.0, 1.6154783665654788E9, 2021-03-11 16:59:26.565
232.0, 150797.6875, 187500.0, -187500.015625, -1044.38525390625, -187500.015625, -8446.8583984375, -18758.119140625, -9092.3759765625, 0.14000000059604645, 0.8860000371932983, 0.34200000762939453, 192.0, 0.0, 0.0, 0.0, 0.0, 0.0, 0.0, 0.0, 0.0, 0.0, 1.6154783665654812E9, 2021-03-11 16:59:26.565
233.0, 150893.6875, 187500.0, -187500.015625, -961.0802612304688, -187500.015625, -8363.7314453125, -18662.0078125, -8994.38671875, 0.14000000059604645, 0.8860000371932983, 0.34200000762939453, 192.0, 0.0, 0.0, 0.0, 0.0, 0.0, 0.0, 0.0, 0.0, 0.0, 1.6154783665654836E9, 2021-03-11 16:59:26.565
234.0, 150648.984375, 187500.0, -187500.015625, -755.6901245117188, -187500.015625, -8561.701171875, -18876.62890625, -9170.8984375, 0.14000000059604645, 0.8860000371932983, 0.34200000762939453, 192.0, 0.0, 0.0, 0.0, 0.0, 0.0, 0.0, 0.0, 0.0, 0.0, 1.6154783665654864E9, 2021-03-11 16:59:26.565
235.0, 150312.90625, 187500.0, -187500.015625, -604.0335083007812, -187500.015625, -8872.30078125, -19215.5703125, -9478.123046875, 0.14000000059604645, 0.8860000371932983, 0.34200000762939453, 192.0, 0.0, 0.0, 0.0, 0.0, 0.0, 0.0, 0.0, 0.0, 0.0, 1.615478366565489E9, 2021-03-11 16:59:26.565
236.0, 150358.59375, 187500.0, -187500.015625, -799.454833984375, -187500.015625, -8834.794921875, -19189.822265625, -9469.2265625, 0.13600000739097595, 0.8980000615119934, 0.3400000035762787, 192.0, 4.0, 64.0, 28.0, 16.0, 10.0, 160.0, 0.0, 0.0, 0.0, 1.6154783665654936E9, 2021-03-11 16:59:26.565
237.0, 150786.46875, 187500.0, -187500.015625, -1059.6514892578125, -187500.015625, -8441.60546875, -18786.662109375, -9098.7685546875, 0.13600000739097595, 0.8980000615119934, 0.3400000035762787, 192.0, 0.0, 0.0, 0.0, 0.0, 0.0, 0.0, 0.0, 0.0, 0.0, 1.6154783665655031E9, 2021-03-11 16:59:26.565
238.0, 150866.25, 187500.0, -187500.015625, -974.8489379882812, -187500.015625, -8363.7314453125, -18702.0625, -9007.23828125, 0.13600000739097595, 0.8980000615119934, 0.3400000035762787, 192.0, 0.0, 0.0, 0.0, 0.0, 0.0, 0.0, 0.0, 0.0, 0.0, 1.6154783665655072E9, 2021-03-11 16:59:26.565
239.0, 150632.203125, 187500.0, -187500.015625, -770.3305053710938, -187500.015625, -8569.4794921875, -18914.73828125, -9186.208984375, 0.13600000739097595, 0.8980000615119934, 0.3400000035762787, 192.0, 0.0, 0.0, 0.0, 0.0, 0.0, 0.0, 0.0, 0.0, 0.0, 1.6154783665655096E9, 2021-03-11 16:59:26.565
240.0, 150299.390625, 187500.0, -187500.015625, -629.8944702148438, -187500.015625, -8874.111328125, -19215.033203125, -9475.2841796875, 0.13600000739097595, 0.8980000615119934, 0.3400000035762787, 192.0, 0.0, 0.0, 0.0, 0.0, 0.0, 0.0, 0.0, 0.0, 0.0, 1.615478366565513E9, 2021-03-11 16:59:26.565
241.0, 150360.875, 187500.0, -187500.015625, -820.5325317382812, -187500.015625, -8825.7197265625, -19178.109375, -9453.06640625, 0.13600000739097595, 0.8980000615119934, 0.3400000035762787, 192.0, 0.0, 0.0, 0.0, 0.0, 0.0, 0.0, 0.0, 0.0, 0.0, 1.6154783665655155E9, 2021-03-11 16:59:26.565
242.0, 150788.90625, 187500.0, -187500.015625, -1070.2908935546875, -187500.015625, -8436.5537109375, -18761.919921875, -9078.853515625, 0.13600000739097595, 0.8980000615119934, 0.3400000035762787, 192.0, 0.0, 0.0, 0.0, 0.0, 0.0, 0.0, 0.0, 0.0, 0.0, 1.6154783665655184E9, 2021-03-11 16:59:26.565
243.0, 150874.828125, 187500.0, -187500.015625, -971.4067993164062, -187500.015625, -8358.099609375, -18669.62890625, -8983.7021484375, 0.13600000739097595, 0.8980000615119934, 0.3400000035762787, 192.0, 0.0, 0.0, 0.0, 0.0, 0.0, 0.0, 0.0, 0.0, 0.0, 1.615478366565521E9, 2021-03-11 16:59:26.565
244.0, 150644.78125, 187500.0, -187500.015625, -750.1692504882812, -187500.015625, -8564.271484375, -18892.453125, -9169.7802734375, 0.13600000739097595, 0.8980000615119934, 0.3400000035762787, 192.0, 0.0, 0.0, 0.0, 0.0, 0.0, 0.0, 0.0, 0.0, 0.0, 1.615478366565524E9, 2021-03-11 16:59:26.565
245.0, 150307.0, 187500.0, -187500.015625, -614.2035522460938, -187500.015625, -8874.5810546875, -19210.33984375, -9472.19921875, 0.13600000739097595, 0.8980000615119934, 0.3400000035762787, 192.0, 0.0, 0.0, 0.0, 0.0, 0.0, 0.0, 0.0, 0.0, 0.0, 1.6154783665655267E9, 2021-03-11 16:59:26.565
246.0, 150369.796875, 187500.0, -187500.015625, -830.3449096679688, -187500.015625, -8828.5361328125, -19164.4296875, -9451.0322265625, 0.13199999928474426, 0.8980000615119934, 0.3320000171661377, 192.0, 4.0, 32.0, 28.0, 16.0, 10.0, 96.0, 0.0, 0.0, 0.0, 1.6154783665655303E9, 2021-03-11 16:59:26.565
247.0, 150786.734375, 187500.0, -187500.015625, -1073.7777099609375, -187500.015625, -8452.0439453125, -18775.509765625, -9097.986328125, 0.13199999928474426, 0.8980000615119934, 0.3320000171661377, 192.0, 0.0, 0.0, 0.0, 0.0, 0.0, 0.0, 0.0, 0.0, 0.0, 1.6154783665655332E9, 2021-03-11 16:59:26.565
248.0, 150857.953125, 187500.0, -187500.015625, -978.3804931640625, -187500.015625, -8379.6015625, -18698.44140625, -9018.3701171875, 0.13199999928474426, 0.8980000615119934, 0.3320000171661377, 192.0, 0.0, 0.0, 0.0, 0.0, 0.0, 0.0, 0.0, 0.0, 0.0, 1.6154783665655358E9, 2021-03-11 16:59:26.565
249.0, 150633.65625, 187500.0, -187500.015625, -752.2479248046875, -187500.015625, -8576.744140625, -18906.15625, -9193.00390625, 0.13199999928474426, 0.8980000615119934, 0.3320000171661377, 192.0, 0.0, 0.0, 0.0, 0.0, 0.0, 0.0, 0.0, 0.0, 0.0, 1.6154783665655384E9, 2021-03-11 16:59:26.565
250.0, 150308.859375, 187500.0, -187500.015625, -625.535888671875, -187500.015625, -8882.001953125, -19241.119140625, -9498.9765625, 0.13199999928474426, 0.8980000615119934, 0.3320000171661377, 192.0, 0.0, 0.0, 0.0, 0.0, 0.0, 0.0, 0.0, 0.0, 0.0, 1.6154783665655415E9, 2021-03-11 16:59:26.565
251.0, 150400.546875, 187500.0, -187500.015625, -848.427490234375, -187500.015625, -8827.0390625, -19177.595703125, -9465.44921875, 0.13199999928474426, 0.8980000615119934, 0.3320000171661377, 192.0, 0.0, 0.0, 0.0, 0.0, 0.0, 0.0, 0.0, 0.0, 0.0, 1.615478366565544E9, 2021-03-11 16:59:26.565
252.0, 150799.796875, 187500.0, -187500.015625, -1093.402587890625, -187500.015625, -8453.67578125, -18785.65625, -9110.4365234375, 0.13199999928474426, 0.8980000615119934, 0.3320000171661377, 192.0, 0.0, 0.0, 0.0, 0.0, 0.0, 0.0, 0.0, 0.0, 0.0, 1.6154783665655465E9, 2021-03-11 16:59:26.565
253.0, 150862.765625, 187500.0, -187500.015625, -996.0160522460938, -187500.015625, -8380.6748046875, -18694.685546875, -9019.4423828125, 0.13199999928474426, 0.8980000615119934, 0.3320000171661377, 192.0, 0.0, 0.0, 0.0, 0.0, 0.0, 0.0, 0.0, 0.0, 0.0, 1.6154783665655491E9, 2021-03-11 16:59:26.565
254.0, 150633.75, 187500.0, -187500.015625, -763.3120727539062, -187500.015625, -8587.1826171875, -18900.076171875, -9197.98828125, 0.13199999928474426, 0.8980000615119934, 0.3320000171661377, 192.0, 0.0, 0.0, 0.0, 0.0, 0.0, 0.0, 0.0, 0.0, 0.0, 1.6154783665655518E9, 2021-03-11 16:59:26.565
255.0, 150281.40625, 187500.0, -187500.015625, -640.7574462890625, -187500.015625, -8888.5283203125, -19229.7421875, -9501.525390625, 0.1340000033378601, 0.8940000534057617, 0.328000009059906, 192.0, 4.0, 48.0, 27.0, 240.0, 10.0, 64.0, 0.0, 0.0, 0.0, 1.6154783665655544E9, 2021-03-11 16:59:26.565
0.0, 150370.8125, 187500.0, -187500.015625, -854.2389526367188, -187500.015625, -8809.984375, -19153.923828125, -9449.0654296875, 0.1340000033378601, 0.8940000534057617, 0.328000009059906, 192.0, 0.0, 0.0, 0.0, 0.0, 0.0, 0.0, 0.0, 0.0, 0.0, 1.6154783665655572E9, 2021-03-11 16:59:26.565
1.0, 150806.484375, 187500.0, -187500.015625, -1088.217041015625, -187500.015625, -8412.9052734375, -18740.439453125, -9070.806640625, 0.1340000033378601, 0.8940000534057617, 0.328000009059906, 192.0, 0.0, 0.0, 0.0, 0.0, 0.0, 0.0, 0.0, 0.0, 0.0, 1.61547836656556E9, 2021-03-11 16:59:26.565
2.0, 150868.5, 187500.0, -187500.015625, -971.80908203125, -187500.015625, -8349.896484375, -18679.10546875, -8994.2080078125, 0.1340000033378601, 0.8940000534057617, 0.328000009059906, 192.0, 0.0, 0.0, 0.0, 0.0, 0.0, 0.0, 0.0, 0.0, 0.0, 1.6154783665655625E9, 2021-03-11 16:59:26.565
3.0, 150611.234375, 187500.0, -187500.015625, -748.6046142578125, -187500.015625, -8576.1181640625, -18923.322265625, -9199.396484375, 0.1340000033378601, 0.8940000534057617, 0.328000009059906, 192.0, 0.0, 0.0, 0.0, 0.0, 0.0, 0.0, 0.0, 0.0, 0.0, 1.6154783665655668E9, 2021-03-11 16:59:26.565
4.0, 150283.671875, 187500.0, -187500.015625, -641.6514892578125, -187500.015625, -8884.37109375, -19253.412109375, -9505.4365234375, 0.1340000033378601, 0.8940000534057617, 0.328000009059906, 192.0, 0.0, 0.0, 0.0, 0.0, 0.0, 0.0, 0.0, 0.0, 0.0, 1.6154783665655696E9, 2021-03-11 16:59:26.565
5.0, 150394.953125, 187500.0, -187500.015625, -850.126220703125, -187500.015625, -8788.8173828125, -19164.630859375, -9435.900390625, 0.1340000033378601, 0.8940000534057617, 0.328000009059906, 192.0, 0.0, 0.0, 0.0, 0.0, 0.0, 0.0, 0.0, 0.0, 0.0, 1.615478366565572E9, 2021-03-11 16:59:26.565
6.0, 150823.0625, 187500.0, -187500.015625, -1078.1810302734375, -187500.015625, -8396.857421875, -18749.40234375, -9061.12890625, 0.1340000033378601, 0.8940000534057617, 0.328000009059906, 192.0, 0.0, 0.0, 0.0, 0.0, 0.0, 0.0, 0.0, 0.0, 0.0, 1.6154783665655746E9, 2021-03-11 16:59:26.565
7.0, 150882.265625, 187500.0, -187500.015625, -969.7750854492188, -187500.015625, -8352.220703125, -18696.697265625, -9002.0302734375, 0.1340000033378601, 0.8940000534057617, 0.328000009059906, 192.0, 0.0, 0.0, 0.0, 0.0, 0.0, 0.0, 0.0, 0.0, 0.0, 1.615478366565577E9, 2021-03-11 16:59:26.565
8.0, 150640.53125, 187500.0, -187500.015625, -729.8738403320312, -187500.015625, -8565.322265625, -18910.3125, -9185.3154296875, 0.1340000033378601, 0.8940000534057617, 0.328000009059906, 192.0, 0.0, 0.0, 0.0, 0.0, 0.0, 0.0, 0.0, 0.0, 0.0, 1.6154783665655797E9, 2021-03-11 16:59:26.565
9.0, 150311.1875, 187500.0, -187500.015625, -612.9518432617188, -187500.015625, -8868.5908203125, -19221.314453125, -9480.939453125, 0.13199999928474426, 0.9040000438690186, 0.33000001311302185, 192.0, 4.0, 32.0, 28.0, 64.0, 10.0, 80.0, 0.0, 0.0, 0.0, 1.6154783665655825E9, 2021-03-11 16:59:26.565
10.0, 150433.84375, 187500.0, -187500.015625, -840.4031982421875, -187500.015625, -8770.8017578125, -19120.888671875, -9410.7099609375, 0.13199999928474426, 0.9040000438690186, 0.33000001311302185, 192.0, 0.0, 0.0, 0.0, 0.0, 0.0, 0.0, 0.0, 0.0, 0.0, 1.6154783665655851E9, 2021-03-11 16:59:26.565
11.0, 150869.046875, 187500.0, -187500.015625, -1053.482421875, -187500.015625, -8375.6904296875, -18710.578125, -9036.2734375, 0.13199999928474426, 0.9040000438690186, 0.33000001311302185, 192.0, 0.0, 0.0, 0.0, 0.0, 0.0, 0.0, 0.0, 0.0, 0.0, 1.6154783665655875E9, 2021-03-11 16:59:26.565
12.0, 150890.34375, 187500.0, -187500.015625, -945.5234375, -187500.015625, -8327.208984375, -18666.767578125, -8978.4267578125, 0.13199999928474426, 0.9040000438690186, 0.33000001311302185, 192.0, 0.0, 0.0, 0.0, 0.0, 0.0, 0.0, 0.0, 0.0, 0.0, 1.6154783665655904E9, 2021-03-11 16:59:26.565
13.0, 150644.828125, 187500.0, -187500.015625, -712.640625, -187500.015625, -8550.4580078125, -18905.216796875, -9182.8115234375, 0.13199999928474426, 0.9040000438690186, 0.33000001311302185, 192.0, 0.0, 0.0, 0.0, 0.0, 0.0, 0.0, 0.0, 0.0, 0.0, 1.6154783665655928E9, 2021-03-11 16:59:26.565
14.0, 150323.703125, 187500.0, -187500.015625, -619.6126708984375, -187500.015625, -8853.8388671875, -19227.328125, -9487.9580078125, 0.13199999928474426, 0.9040000438690186, 0.33000001311302185, 192.0, 0.0, 0.0, 0.0, 0.0, 0.0, 0.0, 0.0, 0.0, 0.0, 1.6154783665655954E9, 2021-03-11 16:59:26.565
15.0, 150463.46875, 187500.0, -187500.015625, -858.0834350585938, -187500.015625, -8738.9287109375, -19119.8828125, -9403.4013671875, 0.13199999928474426, 0.9040000438690186, 0.33000001311302185, 192.0, 0.0, 0.0, 0.0, 0.0, 0.0, 0.0, 0.0, 0.0, 0.0, 1.6154783665655978E9, 2021-03-11 16:59:26.565
16.0, 150865.90625, 187500.0, -187500.015625, -1071.006103515625, -187500.015625, -8366.369140625, -18730.224609375, -9049.8408203125, 0.13199999928474426, 0.9040000438690186, 0.33000001311302185, 192.0, 0.0, 0.0, 0.0, 0.0, 0.0, 0.0, 0.0, 0.0, 0.0, 1.6154783665656004E9, 2021-03-11 16:59:26.565
17.0, 150909.765625, 187500.0, -187500.015625, -971.2056274414062, -187500.015625, -8328.6396484375, -18688.716796875, -9000.7119140625, 0.13199999928474426, 0.9040000438690186, 0.33000001311302185, 192.0, 0.0, 0.0, 0.0, 0.0, 0.0, 0.0, 0.0, 0.0, 0.0, 1.6154783665656033E9, 2021-03-11 16:59:26.565
18.0, 150655.375, 187500.0, -187500.015625, -742.681396484375, -187500.015625, -8562.1259765625, -18930.51953125, -9212.0478515625, 0.13199999928474426, 0.9040000438690186, 0.33000001311302185, 192.0, 0.0, 0.0, 0.0, 0.0, 0.0, 0.0, 0.0, 0.0, 0.0, 1.6154783670458882E9, 2021-03-11 16:59:27.045
19.0, 150333.375, 187500.0, -187500.015625, -653.2967529296875, -187500.015625, -8860.9912109375, -19239.509765625, -9509.3486328125, 0.13199999928474426, 0.8920000195503235, 0.3360000252723694, 192.0, 4.0, 32.0, 27.0, 224.0, 10.0, 128.0, 0.0, 0.0, 0.0, 1.6154783670460632E9, 2021-03-11 16:59:27.046
20.0, 150476.03125, 187500.0, -187500.015625, -884.5925903320312, -187500.015625, -8737.20703125, -19104.19140625, -9411.9169921875, 0.13199999928474426, 0.8920000195503235, 0.3360000252723694, 192.0, 0.0, 0.0, 0.0, 0.0, 0.0, 0.0, 0.0, 0.0, 0.0, 1.6154783670460823E9, 2021-03-11 16:59:27.046
21.0, 150889.9375, 187500.0, -187500.015625, -1092.8214111328125, -187500.015625, -8363.1953125, -18712.09765625, -9054.0654296875, 0.13199999928474426, 0.8920000195503235, 0.3360000252723694, 192.0, 0.0, 0.0, 0.0, 0.0, 0.0, 0.0, 0.0, 0.0, 0.0, 1.6154783670460937E9, 2021-03-11 16:59:27.046
22.0, 150918.0625, 187500.0, -187500.015625, -962.063720703125, -187500.015625, -8334.4736328125, -18681.900390625, -9005.8974609375, 0.13199999928474426, 0.8920000195503235, 0.3360000252723694, 192.0, 0.0, 0.0, 0.0, 0.0, 0.0, 0.0, 0.0, 0.0, 0.0, 1.6154783670460963E9, 2021-03-11 16:59:27.046
23.0, 150676.34375, 187500.0, -187500.015625, -720.5308227539062, -187500.015625, -8573.1005859375, -18931.79296875, -9217.1884765625, 0.13199999928474426, 0.8920000195503235, 0.3360000252723694, 192.0, 0.0, 0.0, 0.0, 0.0, 0.0, 0.0, 0.0, 0.0, 0.0, 1.6154783670460994E9, 2021-03-11 16:59:27.046
24.0, 150348.765625, 187500.0, -187500.015625, -638.0081787109375, -187500.015625, -8871.1162109375, -19248.5625, -9511.8740234375, 0.13199999928474426, 0.8920000195503235, 0.3360000252723694, 192.0, 0.0, 0.0, 0.0, 0.0, 0.0, 0.0, 0.0, 0.0, 0.0, 1.6154783670461023E9, 2021-03-11 16:59:27.046
25.0, 150467.203125, 187500.0, -187500.015625, -863.7608032226562, -187500.015625, -8731.1279296875, -19110.583984375, -9399.4892578125, 0.13199999928474426, 0.8920000195503235, 0.3360000252723694, 192.0, 0.0, 0.0, 0.0, 0.0, 0.0, 0.0, 0.0, 0.0, 0.0, 1.615478367046105E9, 2021-03-11 16:59:27.046
26.0, 150876.265625, 187500.0, -187500.015625, -1062.57958984375, -187500.015625, -8356.6689453125, -18722.021484375, -9041.212890625, 0.13199999928474426, 0.8920000195503235, 0.3360000252723694, 192.0, 0.0, 0.0, 0.0, 0.0, 0.0, 0.0, 0.0, 0.0, 0.0, 1.615478367046108E9, 2021-03-11 16:59:27.046
27.0, 150894.984375, 187500.0, -187500.015625, -941.4107666015625, -187500.015625, -8331.9697265625, -18699.849609375, -9001.13671875, 0.13199999928474426, 0.8920000195503235, 0.3360000252723694, 192.0, 0.0, 0.0, 0.0, 0.0, 0.0, 0.0, 0.0, 0.0, 0.0, 1.615478367046121E9, 2021-03-11 16:59:27.046
28.0, 150633.9375, 187500.0, -187500.015625, -705.5104370117188, -187500.015625, -8566.23828125, -18950.859375, -9213.03125, 0.13199999928474426, 0.8920000195503235, 0.3360000252723694, 192.0, 0.0, 0.0, 0.0, 0.0, 0.0, 0.0, 0.0, 0.0, 0.0, 1.6154783670461237E9, 2021-03-11 16:59:27.046
29.0, 150323.5, 187500.0, -187500.015625, -637.9411010742188, -187500.015625, -8857.75, -19260.4296875, -9504.7216796875, 0.13199999928474426, 0.8980000615119934, 0.33800002932548523, 192.0, 4.0, 32.0, 28.0, 16.0, 10.0, 144.0, 0.0, 0.0, 0.0, 1.6154783670461287E9, 2021-03-11 16:59:27.046
30.0, 150489.21875, 187500.0, -187500.015625, -880.010498046875, -187500.015625, -8710.4072265625, -19104.728515625, -9382.14453125, 0.13199999928474426, 0.8980000615119934, 0.33800002932548523, 192.0, 0.0, 0.0, 0.0, 0.0, 0.0, 0.0, 0.0, 0.0, 0.0, 1.615478367046133E9, 2021-03-11 16:59:27.046
31.0, 150888.46875, 187500.0, -187500.015625, -1060.523193359375, -187500.015625, -8340.150390625, -18707.380859375, -9021.7001953125, 0.13199999928474426, 0.8980000615119934, 0.33800002932548523, 192.0, 0.0, 0.0, 0.0, 0.0, 0.0, 0.0, 0.0, 0.0, 0.0, 1.615478367046137E9, 2021-03-11 16:59:27.046
32.0, 150907.28125, 187500.0, -187500.015625, -950.3514404296875, -187500.015625, -8320.66015625, -18679.552734375, -8986.8759765625, 0.13199999928474426, 0.8980000615119934, 0.33800002932548523, 192.0, 0.0, 0.0, 0.0, 0.0, 0.0, 0.0, 0.0, 0.0, 0.0, 1.6154783670461428E9, 2021-03-11 16:59:27.046
33.0, 150645.03125, 187500.0, -187500.015625, -717.0439453125, -187500.015625, -8558.236328125, -18926.427734375, -9200.0, 0.13199999928474426, 0.8980000615119934, 0.33800002932548523, 192.0, 0.0, 0.0, 0.0, 0.0, 0.0, 0.0, 0.0, 0.0, 0.0, 1.6154783670461483E9, 2021-03-11 16:59:27.046
34.0, 150328.890625, 187500.0, -187500.015625, -650.9051513671875, -187500.015625, -8854.576171875, -19241.38671875, -9497.4794921875, 0.13199999928474426, 0.8980000615119934, 0.33800002932548523, 192.0, 0.0, 0.0, 0.0, 0.0, 0.0, 0.0, 0.0, 0.0, 0.0, 1.6154783670461526E9, 2021-03-11 16:59:27.046
35.0, 150503.90625, 187500.0, -187500.015625, -902.5410766601562, -187500.015625, -8706.205078125, -19093.396484375, -9376.3779296875, 0.13199999928474426, 0.8980000615119934, 0.33800002932548523, 192.0, 0.0, 0.0, 0.0, 0.0, 0.0, 0.0, 0.0, 0.0, 0.0, 1.615478367046156E9, 2021-03-11 16:59:27.046
36.0, 150900.5625, 187500.0, -187500.015625, -1070.3355712890625, -187500.015625, -8340.8212890625, -18713.728515625, -9024.9638671875, 0.13199999928474426, 0.8980000615119934, 0.33800002932548523, 192.0, 0.0, 0.0, 0.0, 0.0, 0.0, 0.0, 0.0, 0.0, 0.0, 1.6154783670461593E9, 2021-03-11 16:59:27.046
37.0, 150906.328125, 187500.0, -187500.015625, -959.3145141601562, -187500.015625, -8337.5361328125, -18711.6953125, -9009.25, 0.13199999928474426, 0.8980000615119934, 0.33800002932548523, 192.0, 0.0, 0.0, 0.0, 0.0, 0.0, 0.0, 0.0, 0.0, 0.0, 1.6154783670461624E9, 2021-03-11 16:59:27.046
38.0, 150625.734375, 187500.0, -187500.015625, -726.0069580078125, -187500.015625, -8586.51171875, -18980.67578125, -9236.34375, 0.13199999928474426, 0.8980000615119934, 0.33800002932548523, 192.0, 0.0, 0.0, 0.0, 0.0, 0.0, 0.0, 0.0, 0.0, 0.0, 1.6154783670461652E9, 2021-03-11 16:59:27.046
39.0, 150294.421875, 187500.0, -187500.015625, -669.36767578125, -187500.015625, -8877.1513671875, -19281.44140625, -9525.798828125, 0.1300000101327896, 0.9020000696182251, 0.34200000762939453, 192.0, 4.0, 16.0, 28.0, 48.0, 10.0, 176.0, 0.0, 0.0, 0.0, 1.6154783670461683E9, 2021-03-11 16:59:27.046
40.0, 150500.609375, 187500.0, -187500.015625, -898.1377563476562, -187500.015625, -8705.19921875, -19100.951171875, -9380.2890625, 0.1300000101327896, 0.9020000696182251, 0.34200000762939453, 192.0, 0.0, 0.0, 0.0, 0.0, 0.0, 0.0, 0.0, 0.0, 0.0, 1.6154783670461712E9, 2021-03-11 16:59:27.046
41.0, 150903.28125, 187500.0, -187500.015625, -1073.17431640625, -187500.015625, -8345.626953125, -18716.61328125, -9031.19921875, 0.1300000101327896, 0.9020000696182251, 0.34200000762939453, 192.0, 0.0, 0.0, 0.0, 0.0, 0.0, 0.0, 0.0, 0.0, 0.0, 1.6154783670461743E9, 2021-03-11 16:59:27.046
42.0, 150875.75, 187500.0, -187500.015625, -941.5448608398438, -187500.015625, -8345.828125, -18711.896484375, -9016.3359375, 0.1300000101327896, 0.9020000696182251, 0.34200000762939453, 192.0, 0.0, 0.0, 0.0, 0.0, 0.0, 0.0, 0.0, 0.0, 0.0, 1.6154783670461776E9, 2021-03-11 16:59:27.046
43.0, 150617.515625, 187500.0, -187500.015625, -699.900146484375, -187500.015625, -8585.595703125, -18967.578125, -9236.43359375, 0.1300000101327896, 0.9020000696182251, 0.34200000762939453, 192.0, 0.0, 0.0, 0.0, 0.0, 0.0, 0.0, 0.0, 0.0, 0.0, 1.6154783670461805E9, 2021-03-11 16:59:27.046
44.0, 150334.390625, 187500.0, -187500.015625, -647.6194458007812, -187500.015625, -8859.248046875, -19253.12109375, -9515.3603515625, 0.1300000101327896, 0.9020000696182251, 0.34200000762939453, 192.0, 0.0, 0.0, 0.0, 0.0, 0.0, 0.0, 0.0, 0.0, 0.0, 1.615478367046183E9, 2021-03-11 16:59:27.046
45.0, 150514.25, 187500.0, -187500.015625, -907.503173828125, -187500.015625, -8696.7724609375, -19087.29296875, -9386.1455078125, 0.1300000101327896, 0.9020000696182251, 0.34200000762939453, 192.0, 0.0, 0.0, 0.0, 0.0, 0.0, 0.0, 0.0, 0.0, 0.0, 1.6154783670461864E9, 2021-03-11 16:59:27.046
46.0, 150885.296875, 187500.0, -187500.015625, -1087.56884765625, -187500.015625, -8347.4150390625, -18727.162109375, -9049.9755859375, 0.1300000101327896, 0.9020000696182251, 0.34200000762939453, 192.0, 0.0, 0.0, 0.0, 0.0, 0.0, 0.0, 0.0, 0.0, 0.0, 1.6154783670461893E9, 2021-03-11 16:59:27.046
47.0, 150881.671875, 187500.0, -187500.015625, -949.9267578125, -187500.015625, -8347.34765625, -18721.126953125, -9029.8583984375, 0.1300000101327896, 0.9020000696182251, 0.34200000762939453, 192.0, 0.0, 0.0, 0.0, 0.0, 0.0, 0.0, 0.0, 0.0, 0.0, 1.6154783670461924E9, 2021-03-11 16:59:27.046
48.0, 150617.84375, 187500.0, -187500.015625, -694.2451782226562, -187500.015625, -8594.6474609375, -18981.390625, -9250.537109375, 0.1300000101327896, 0.9020000696182251, 0.34200000762939453, 192.0, 0.0, 0.0, 0.0, 0.0, 0.0, 0.0, 0.0, 0.0, 0.0, 1.6154783670461953E9, 2021-03-11 16:59:27.046
49.0, 150325.640625, 187500.0, -187500.015625, -657.4541625976562, -187500.015625, -8871.3173828125, -19273.3046875, -9526.0224609375, 0.13600000739097595, 0.8940000534057617, 0.3440000116825104, 192.0, 4.0, 64.0, 27.0, 240.0, 10.0, 192.0, 0.0, 0.0, 0.0, 1.6154783670461984E9, 2021-03-11 16:59:27.046
50.0, 150545.359375, 187500.0, -187500.015625, -925.8316040039062, -187500.015625, -8691.20703125, -19084.4765625, -9373.1142578125, 0.13600000739097595, 0.8940000534057617, 0.3440000116825104, 192.0, 0.0, 0.0, 0.0, 0.0, 0.0, 0.0, 0.0, 0.0, 0.0, 1.6154783670462031E9, 2021-03-11 16:59:27.046
51.0, 150916.203125, 187500.0, -187500.015625, -1090.3404541015625, -187500.015625, -8333.3115234375, -18703.06640625, -9047.7841796875, 0.13600000739097595, 0.8940000534057617, 0.3440000116825104, 192.0, 0.0, 0.0, 0.0, 0.0, 0.0, 0.0, 0.0, 0.0, 0.0, 1.615478367046206E9, 2021-03-11 16:59:27.046
52.0, 150873.734375, 187500.0, -187500.015625, -1011.6175537109375, -187500.015625, -8369.7890625, -18727.720703125, -9056.3896484375, 0.13600000739097595, 0.8940000534057617, 0.3440000116825104, 192.0, 0.0, 0.0, 0.0, 0.0, 0.0, 0.0, 0.0, 0.0, 0.0, 1.6154783670462089E9, 2021-03-11 16:59:27.046
53.0, 150598.921875, 187500.0, -187500.015625, -774.7561645507812, -187500.015625, -8608.55078125, -18959.240234375, -9241.171875, 0.13600000739097595, 0.8940000534057617, 0.3440000116825104, 192.0, 0.0, 0.0, 0.0, 0.0, 0.0, 0.0, 0.0, 0.0, 0.0, 1.615478367046212E9, 2021-03-11 16:59:27.046
54.0, 150317.5625, 187500.0, -187500.015625, -712.3276977539062, -187500.015625, -8866.1767578125, -19234.591796875, -9508.7001953125, 0.13600000739097595, 0.8940000534057617, 0.3440000116825104, 192.0, 0.0, 0.0, 0.0, 0.0, 0.0, 0.0, 0.0, 0.0, 0.0, 1.6154783670462153E9, 2021-03-11 16:59:27.046
55.0, 150530.484375, 187500.0, -187500.015625, -958.82275390625, -187500.015625, -8684.8818359375, -19059.599609375, -9356.0595703125, 0.13600000739097595, 0.8940000534057617, 0.3440000116825104, 192.0, 0.0, 0.0, 0.0, 0.0, 0.0, 0.0, 0.0, 0.0, 0.0, 1.615478367046218E9, 2021-03-11 16:59:27.046
56.0, 150901.921875, 187500.0, -187500.015625, -1075.2305908203125, -187500.015625, -8336.060546875, -18696.83203125, -9007.5068359375, 0.13600000739097595, 0.8940000534057617, 0.3440000116825104, 192.0, 0.0, 0.0, 0.0, 0.0, 0.0, 0.0, 0.0, 0.0, 0.0, 1.615478367046222E9, 2021-03-11 16:59:27.046
57.0, 150878.609375, 187500.0, -187500.015625, -918.6790161132812, -187500.015625, -8354.92578125, -18724.078125, -9009.40625, 0.13600000739097595, 0.8940000534057617, 0.3440000116825104, 192.0, 0.0, 0.0, 0.0, 0.0, 0.0, 0.0, 0.0, 0.0, 0.0, 1.6154783670462253E9, 2021-03-11 16:59:27.046
58.0, 150589.640625, 187500.0, -187500.015625, -687.2266845703125, -187500.015625, -8611.2099609375, -18999.02734375, -9250.0234375, 0.13600000739097595, 0.8940000534057617, 0.3440000116825104, 192.0, 0.0, 0.0, 0.0, 0.0, 0.0, 0.0, 0.0, 0.0, 0.0, 1.615478367046228E9, 2021-03-11 16:59:27.046
59.0, 150301.90625, 187500.0, -187500.015625, -667.5348510742188, -187500.015625, -8879.431640625, -19287.521484375, -9533.041015625, 0.14000000059604645, 0.9220000505447388, 0.33400002121925354, 192.0, 4.0, 96.0, 28.0, 208.0, 10.0, 112.0, 0.0, 0.0, 0.0, 1.6154783670462313E9, 2021-03-11 16:59:27.046
60.0, 150549.03125, 187500.0, -187500.015625, -930.480712890625, -187500.015625, -8673.169921875, -19068.228515625, -9366.2744140625, 0.14000000059604645, 0.9220000505447388, 0.33400002121925354, 192.0, 0.0, 0.0, 0.0, 0.0, 0.0, 0.0, 0.0, 0.0, 0.0, 1.615478367046234E9, 2021-03-11 16:59:27.046
61.0, 150904.375, 187500.0, -187500.015625, -1067.876953125, -187500.015625, -8316.994140625, -18699.71484375, -9026.2822265625, 0.14000000059604645, 0.9220000505447388, 0.33400002121925354, 192.0, 0.0, 0.0, 0.0, 0.0, 0.0, 0.0, 0.0, 0.0, 0.0, 1.6154783670462372E9, 2021-03-11 16:59:27.046
62.0, 150864.125, 187500.0, -187500.015625, -937.9909057617188, -187500.015625, -8344.4423828125, -18733.95703125, -9042.6884765625, 0.14000000059604645, 0.9220000505447388, 0.33400002121925354, 192.0, 0.0, 0.0, 0.0, 0.0, 0.0, 0.0, 0.0, 0.0, 0.0, 1.61547836704624E9, 2021-03-11 16:59:27.046
63.0, 150585.84375, 187500.0, -187500.015625, -717.3568725585938, -187500.015625, -8602.404296875, -19003.787109375, -9281.7177734375, 0.14000000059604645, 0.9220000505447388, 0.33400002121925354, 192.0, 0.0, 0.0, 0.0, 0.0, 0.0, 0.0, 0.0, 0.0, 0.0, 1.6154783670462427E9, 2021-03-11 16:59:27.046
64.0, 150326.78125, 187500.0, -187500.015625, -704.392822265625, -187500.015625, -8863.7626953125, -19266.0859375, -9548.2177734375, 0.14000000059604645, 0.9220000505447388, 0.33400002121925354, 192.0, 0.0, 0.0, 0.0, 0.0, 0.0, 0.0, 0.0, 0.0, 0.0, 1.6154783670462456E9, 2021-03-11 16:59:27.046
65.0, 150547.828125, 187500.0, -187500.015625, -970.3562622070312, -187500.015625, -8660.205078125, -19063.935546875, -9382.0322265625, 0.14000000059604645, 0.9220000505447388, 0.33400002121925354, 192.0, 0.0, 0.0, 0.0, 0.0, 0.0, 0.0, 0.0, 0.0, 0.0, 1.615478367046249E9, 2021-03-11 16:59:27.046
66.0, 150907.484375, 187500.0, -187500.015625, -1106.5677490234375, -187500.015625, -8328.1474609375, -18718.9140625, -9061.0166015625, 0.14000000059604645, 0.9220000505447388, 0.33400002121925354, 192.0, 0.0, 0.0, 0.0, 0.0, 0.0, 0.0, 0.0, 0.0, 0.0, 1.615478367046252E9, 2021-03-11 16:59:27.046
67.0, 150868.375, 187500.0, -187500.015625, -968.1881103515625, -187500.015625, -8359.4853515625, -18731.185546875, -9067.0068359375, 0.14000000059604645, 0.9220000505447388, 0.33400002121925354, 192.0, 0.0, 0.0, 0.0, 0.0, 0.0, 0.0, 0.0, 0.0, 0.0, 1.6154783670462549E9, 2021-03-11 16:59:27.046
68.0, 150577.171875, 187500.0, -187500.015625, -727.3034057617188, -187500.015625, -8615.5244140625, -18989.68359375, -9301.923828125, 0.14000000059604645, 0.9220000505447388, 0.33400002121925354, 192.0, 0.0, 0.0, 0.0, 0.0, 0.0, 0.0, 0.0, 0.0, 0.0, 1.6154783670462575E9, 2021-03-11 16:59:27.046
69.0, 150308.171875, 187500.0, -187500.015625, -713.7359008789062, -187500.015625, -8874.6923828125, -19256.607421875, -9565.5849609375, 0.1340000033378601, 0.9120000600814819, 0.33000001311302185, 192.0, 4.0, 48.0, 28.0, 128.0, 10.0, 80.0, 0.0, 0.0, 0.0, 1.6154783670462606E9, 2021-03-11 16:59:27.046
70.0, 150561.96875, 187500.0, -187500.015625, -983.364990234375, -187500.015625, -8649.767578125, -19028.978515625, -9377.2265625, 0.1340000033378601, 0.9120000600814819, 0.33000001311302185, 192.0, 0.0, 0.0, 0.0, 0.0, 0.0, 0.0, 0.0, 0.0, 0.0, 1.6154783670462637E9, 2021-03-11 16:59:27.046
71.0, 150924.875, 187500.0, -187500.015625, -1098.3199462890625, -187500.015625, -8311.048828125, -18667.818359375, -9048.74609375, 0.1340000033378601, 0.9120000600814819, 0.33000001311302185, 192.0, 0.0, 0.0, 0.0, 0.0, 0.0, 0.0, 0.0, 0.0, 0.0, 1.6154783670462663E9, 2021-03-11 16:59:27.046
72.0, 150874.5625, 187500.0, -187500.015625, -966.467041015625, -187500.015625, -8353.115234375, -18712.41015625, -9074.271484375, 0.1340000033378601, 0.9120000600814819, 0.33000001311302185, 192.0, 0.0, 0.0, 0.0, 0.0, 0.0, 0.0, 0.0, 0.0, 0.0, 1.6154783670462692E9, 2021-03-11 16:59:27.046
73.0, 150576.640625, 187500.0, -187500.015625, -717.9603881835938, -187500.015625, -8612.126953125, -18997.10546875, -9316.2734375, 0.1340000033378601, 0.9120000600814819, 0.33000001311302185, 192.0, 0.0, 0.0, 0.0, 0.0, 0.0, 0.0, 0.0, 0.0, 0.0, 1.615478367046274E9, 2021-03-11 16:59:27.046
74.0, 150293.265625, 187500.0, -187500.015625, -717.6474609375, -187500.015625, -8883.611328125, -19287.005859375, -9601.4599609375, 0.1340000033378601, 0.9120000600814819, 0.33000001311302185, 192.0, 0.0, 0.0, 0.0, 0.0, 0.0, 0.0, 0.0, 0.0, 0.0, 1.6154783670462773E9, 2021-03-11 16:59:27.046
75.0, 150558.015625, 187500.0, -187500.015625, -994.4737548828125, -187500.015625, -8651.48828125, -19025.24609375, -9392.11328125, 0.1340000033378601, 0.9120000600814819, 0.33000001311302185, 192.0, 0.0, 0.0, 0.0, 0.0, 0.0, 0.0, 0.0, 0.0, 0.0, 1.61547836704628E9, 2021-03-11 16:59:27.046
76.0, 150930.640625, 187500.0, -187500.015625, -1102.54443359375, -187500.015625, -8317.396484375, -18668.310546875, -9065.15234375, 0.1340000033378601, 0.9120000600814819, 0.33000001311302185, 192.0, 0.0, 0.0, 0.0, 0.0, 0.0, 0.0, 0.0, 0.0, 0.0, 1.6154783670462832E9, 2021-03-11 16:59:27.046
77.0, 150875.765625, 187500.0, -187500.015625, -962.3319702148438, -187500.015625, -8373.1640625, -18716.74609375, -9100.7578125, 0.1340000033378601, 0.9120000600814819, 0.33000001311302185, 192.0, 0.0, 0.0, 0.0, 0.0, 0.0, 0.0, 0.0, 0.0, 0.0, 1.615478367046286E9, 2021-03-11 16:59:27.046
78.0, 150567.515625, 187500.0, -187500.015625, -726.4540405273438, -187500.015625, -8642.3466796875, -18998.84765625, -9349.041015625, 0.1340000033378601, 0.9120000600814819, 0.33000001311302185, 192.0, 0.0, 0.0, 0.0, 0.0, 0.0, 0.0, 0.0, 0.0, 0.0, 1.6154783670462897E9, 2021-03-11 16:59:27.046
79.0, 150298.40625, 187500.0, -187500.015625, -715.5240478515625, -187500.015625, -8895.703125, -19260.162109375, -9605.05859375, 0.12600000202655792, 0.9120000600814819, 0.32600000500679016, 192.0, 3.0, 240.0, 28.0, 128.0, 10.0, 48.0, 0.0, 0.0, 0.0, 1.6154783670462923E9, 2021-03-11 16:59:27.046
80.0, 150588.09375, 187500.0, -187500.015625, -974.6030883789062, -187500.015625, -8642.994140625, -19004.8828125, -9384.22265625, 0.12600000202655792, 0.9120000600814819, 0.32600000500679016, 192.0, 0.0, 0.0, 0.0, 0.0, 0.0, 0.0, 0.0, 0.0, 0.0, 1.6154783670462956E9, 2021-03-11 16:59:27.046
81.0, 150949.28125, 187500.0, -187500.015625, -1083.120849609375, -187500.015625, -8314.2451171875, -18657.916015625, -9061.44140625, 0.12600000202655792, 0.9120000600814819, 0.32600000500679016, 192.0, 0.0, 0.0, 0.0, 0.0, 0.0, 0.0, 0.0, 0.0, 0.0, 1.6154783670462985E9, 2021-03-11 16:59:27.046
82.0, 150859.875, 187500.0, -187500.015625, -932.0676879882812, -187500.015625, -8368.11328125, -18705.32421875, -9092.3759765625, 0.12600000202655792, 0.9120000600814819, 0.32600000500679016, 192.0, 0.0, 0.0, 0.0, 0.0, 0.0, 0.0, 0.0, 0.0, 0.0, 1.6154783670463016E9, 2021-03-11 16:59:27.046
83.0, 150559.453125, 187500.0, -187500.015625, -705.3316040039062, -187500.015625, -8654.9970703125, -19009.48828125, -9360.0380859375, 0.12600000202655792, 0.9120000600814819, 0.32600000500679016, 192.0, 0.0, 0.0, 0.0, 0.0, 0.0, 0.0, 0.0, 0.0, 0.0, 1.6154783670463045E9, 2021-03-11 16:59:27.046
84.0, 150295.671875, 187500.0, -187500.015625, -714.2052612304688, -187500.015625, -8895.3232421875, -19262.1953125, -9604.7451171875, 0.12600000202655792, 0.9120000600814819, 0.32600000500679016, 192.0, 0.0, 0.0, 0.0, 0.0, 0.0, 0.0, 0.0, 0.0, 0.0, 1.6154783670463073E9, 2021-03-11 16:59:27.046
85.0, 150576.171875, 187500.0, -187500.015625, -989.6234741210938, -187500.015625, -8647.3759765625, -19003.67578125, -9386.771484375, 0.12600000202655792, 0.9120000600814819, 0.32600000500679016, 192.0, 0.0, 0.0, 0.0, 0.0, 0.0, 0.0, 0.0, 0.0, 0.0, 1.6154783670463104E9, 2021-03-11 16:59:27.046
86.0, 150936.75, 187500.0, -187500.015625, -1090.5191650390625, -187500.015625, -8317.6875, -18662.498046875, -9070.5390625, 0.12600000202655792, 0.9120000600814819, 0.32600000500679016, 192.0, 0.0, 0.0, 0.0, 0.0, 0.0, 0.0, 0.0, 0.0, 0.0, 1.6154783670463135E9, 2021-03-11 16:59:27.046
87.0, 150871.28125, 187500.0, -187500.015625, -939.6226196289062, -187500.015625, -8374.326171875, -18723.5859375, -9110.8837890625, 0.12600000202655792, 0.9120000600814819, 0.32600000500679016, 192.0, 0.0, 0.0, 0.0, 0.0, 0.0, 0.0, 0.0, 0.0, 0.0, 1.6154783670463164E9, 2021-03-11 16:59:27.046
88.0, 150562.15625, 187500.0, -187500.015625, -699.85546875, -187500.015625, -8652.3154296875, -19021.69140625, -9374.947265625, 0.12600000202655792, 0.9120000600814819, 0.32600000500679016, 192.0, 0.0, 0.0, 0.0, 0.0, 0.0, 0.0, 0.0, 0.0, 0.0, 1.6154783670463195E9, 2021-03-11 16:59:27.046
89.0, 150318.21875, 187500.0, -187500.015625, -721.6707763671875, -187500.015625, -8889.7353515625, -19269.884765625, -9622.3134765625, 0.13199999928474426, 0.9080000519752502, 0.328000009059906, 192.0, 4.0, 32.0, 28.0, 96.0, 10.0, 64.0, 0.0, 0.0, 0.0, 1.6154783670463226E9, 2021-03-11 16:59:27.046
90.0, 150613.828125, 187500.0, -187500.015625, -997.2677612304688, -187500.015625, -8624.0849609375, -18991.158203125, -9381.384765625, 0.13199999928474426, 0.9080000519752502, 0.328000009059906, 192.0, 0.0, 0.0, 0.0, 0.0, 0.0, 0.0, 0.0, 0.0, 0.0, 1.6154783670463257E9, 2021-03-11 16:59:27.046
91.0, 150954.671875, 187500.0, -187500.015625, -1081.802001953125, -187500.015625, -8305.103515625, -18661.0234375, -9072.572265625, 0.13199999928474426, 0.9080000519752502, 0.328000009059906, 192.0, 0.0, 0.0, 0.0, 0.0, 0.0, 0.0, 0.0, 0.0, 0.0, 1.6154783670463283E9, 2021-03-11 16:59:27.046
92.0, 150878.203125, 187500.0, -187500.015625, -945.076416015625, -187500.015625, -8374.37109375, -18731.0078125, -9122.998046875, 0.13199999928474426, 0.9080000519752502, 0.328000009059906, 192.0, 0.0, 0.0, 0.0, 0.0, 0.0, 0.0, 0.0, 0.0, 0.0, 1.6154783670463314E9, 2021-03-11 16:59:27.046
93.0, 150573.59375, 187500.0, -187500.015625, -702.8058471679688, -187500.015625, -8650.5498046875, -19020.595703125, -9378.76953125, 0.13199999928474426, 0.9080000519752502, 0.328000009059906, 192.0, 0.0, 0.0, 0.0, 0.0, 0.0, 0.0, 0.0, 0.0, 0.0, 1.6154783670463347E9, 2021-03-11 16:59:27.046
94.0, 150324.0625, 187500.0, -187500.015625, -726.4540405273438, -187500.015625, -8885.9580078125, -19266.509765625, -9621.3525390625, 0.13199999928474426, 0.9080000519752502, 0.328000009059906, 192.0, 0.0, 0.0, 0.0, 0.0, 0.0, 0.0, 0.0, 0.0, 0.0, 1.6154783670463376E9, 2021-03-11 16:59:27.046
95.0, 150635.90625, 187500.0, -187500.015625, -1005.7167358398438, -187500.015625, -8608.1484375, -18967.712890625, -9370.7001953125, 0.13199999928474426, 0.9080000519752502, 0.328000009059906, 192.0, 0.0, 0.0, 0.0, 0.0, 0.0, 0.0, 0.0, 0.0, 0.0, 1.6154783670463405E9, 2021-03-11 16:59:27.046
96.0, 150971.515625, 187500.0, -187500.015625, -1080.7962646484375, -187500.015625, -8294.732421875, -18648.484375, -9066.962890625, 0.13199999928474426, 0.9080000519752502, 0.328000009059906, 192.0, 0.0, 0.0, 0.0, 0.0, 0.0, 0.0, 0.0, 0.0, 0.0, 1.6154783670463436E9, 2021-03-11 16:59:27.046
97.0, 150870.53125, 187500.0, -187500.015625, -935.1522216796875, -187500.015625, -8382.26171875, -18747.234375, -9137.0126953125, 0.13199999928474426, 0.9080000519752502, 0.328000009059906, 192.0, 0.0, 0.0, 0.0, 0.0, 0.0, 0.0, 0.0, 0.0, 0.0, 1.615478367046348E9, 2021-03-11 16:59:27.046
98.0, 150556.96875, 187500.0, -187500.015625, -708.34912109375, -187500.015625, -8665.97265625, -19046.166015625, -9400.830078125, 0.13199999928474426, 0.9080000519752502, 0.328000009059906, 192.0, 0.0, 0.0, 0.0, 0.0, 0.0, 0.0, 0.0, 0.0, 0.0, 1.6154783670463512E9, 2021-03-11 16:59:27.046
99.0, 150332.640625, 187500.0, -187500.015625, -725.291748046875, -187500.015625, -8877.6875, -19272.791015625, -9621.4423828125, 0.13199999928474426, 0.8980000615119934, 0.328000009059906, 192.0, 4.0, 32.0, 28.0, 16.0, 10.0, 64.0, 0.0, 0.0, 0.0, 1.615478367046354E9, 2021-03-11 16:59:27.046
100.0, 150653.140625, 187500.0, -187500.015625, -999.5699462890625, -187500.015625, -8603.9013671875, -18984.7890625, -9376.712890625, 0.13199999928474426, 0.8980000615119934, 0.328000009059906, 192.0, 0.0, 0.0, 0.0, 0.0, 0.0, 0.0, 0.0, 0.0, 0.0, 1.6154783670463572E9, 2021-03-11 16:59:27.046
101.0, 151011.6875, 187500.0, -187500.015625, -1084.908935546875, -187500.015625, -8300.185546875, -18654.4296875, -9073.064453125, 0.13199999928474426, 0.8980000615119934, 0.328000009059906, 192.0, 0.0, 0.0, 0.0, 0.0, 0.0, 0.0, 0.0, 0.0, 0.0, 1.61547836704636E9, 2021-03-11 16:59:27.046
102.0, 150881.15625, 187500.0, -187500.015625, -916.24267578125, -187500.015625, -8373.4326171875, -18719.384765625, -9119.2880859375, 0.13199999928474426, 0.8980000615119934, 0.328000009059906, 192.0, 0.0, 0.0, 0.0, 0.0, 0.0, 0.0, 0.0, 0.0, 0.0, 1.6154783670463629E9, 2021-03-11 16:59:27.046
103.0, 150567.65625, 187500.0, -187500.015625, -673.0780639648438, -187500.015625, -8654.7958984375, -19018.875, -9380.736328125, 0.13199999928474426, 0.8980000615119934, 0.328000009059906, 192.0, 0.0, 0.0, 0.0, 0.0, 0.0, 0.0, 0.0, 0.0, 0.0, 1.6154783670463655E9, 2021-03-11 16:59:27.046
104.0, 150343.765625, 187500.0, -187500.015625, -706.3374633789062, -187500.015625, -8876.078125, -19253.58984375, -9610.1318359375, 0.13199999928474426, 0.8980000615119934, 0.328000009059906, 192.0, 0.0, 0.0, 0.0, 0.0, 0.0, 0.0, 0.0, 0.0, 0.0, 1.6154783670463686E9, 2021-03-11 16:59:27.046
105.0, 150661.609375, 187500.0, -187500.015625, -993.5350341796875, -187500.015625, -8600.99609375, -18967.48828125, -9360.6201171875, 0.13199999928474426, 0.8980000615119934, 0.328000009059906, 192.0, 0.0, 0.0, 0.0, 0.0, 0.0, 0.0, 0.0, 0.0, 0.0, 1.6154783670463717E9, 2021-03-11 16:59:27.046
106.0, 150981.578125, 187500.0, -187500.015625, -1063.0936279296875, -187500.015625, -8302.64453125, -18659.705078125, -9066.5380859375, 0.13199999928474426, 0.8980000615119934, 0.328000009059906, 192.0, 0.0, 0.0, 0.0, 0.0, 0.0, 0.0, 0.0, 0.0, 0.0, 1.6154783670463746E9, 2021-03-11 16:59:27.046
107.0, 150877.3125, 187500.0, -187500.015625, -914.7227783203125, -187500.015625, -8390.8896484375, -18751.8828125, -9135.7607421875, 0.13199999928474426, 0.8980000615119934, 0.328000009059906, 192.0, 0.0, 0.0, 0.0, 0.0, 0.0, 0.0, 0.0, 0.0, 0.0, 1.6154783670463777E9, 2021-03-11 16:59:27.046
108.0, 150560.78125, 187500.0, -187500.015625, -676.2743530273438, -187500.015625, -8672.7451171875, -19054.123046875, -9399.8466796875, 0.13199999928474426, 0.9020000696182251, 0.3320000171661377, 192.0, 4.0, 32.0, 28.0, 48.0, 10.0, 96.0, 0.0, 0.0, 0.0, 1.6154783670463805E9, 2021-03-11 16:59:27.046
109.0, 150339.640625, 187500.0, -187500.015625, -726.4093017578125, -187500.015625, -8888.998046875, -19283.20703125, -9625.64453125, 0.13199999928474426, 0.9020000696182251, 0.3320000171661377, 192.0, 0.0, 0.0, 0.0, 0.0, 0.0, 0.0, 0.0, 0.0, 0.0, 1.6154783670463836E9, 2021-03-11 16:59:27.046
110.0, 150666.328125, 187500.0, -187500.015625, -1011.7069702148438, -187500.015625, -8597.0615234375, -18965.09765625, -9357.2001953125, 0.13199999928474426, 0.9020000696182251, 0.3320000171661377, 192.0, 0.0, 0.0, 0.0, 0.0, 0.0, 0.0, 0.0, 0.0, 0.0, 1.6154783670463865E9, 2021-03-11 16:59:27.046
111.0, 150980.953125, 187500.0, -187500.015625, -1068.7486572265625, -187500.015625, -8300.1630859375, -18649.802734375, -9062.6259765625, 0.13199999928474426, 0.9020000696182251, 0.3320000171661377, 192.0, 0.0, 0.0, 0.0, 0.0, 0.0, 0.0, 0.0, 0.0, 0.0, 1.615478367046389E9, 2021-03-11 16:59:27.046
112.0, 150873.015625, 187500.0, -187500.015625, -922.9035034179688, -187500.015625, -8397.37109375, -18750.6328125, -9139.29296875, 0.13199999928474426, 0.9020000696182251, 0.3320000171661377, 192.0, 0.0, 0.0, 0.0, 0.0, 0.0, 0.0, 0.0, 0.0, 0.0, 1.6154783670463924E9, 2021-03-11 16:59:27.046
113.0, 150538.390625, 187500.0, -187500.015625, -693.3958129882812, -187500.015625, -8698.8740234375, -19066.841796875, -9420.0751953125, 0.13199999928474426, 0.9020000696182251, 0.3320000171661377, 192.0, 0.0, 0.0, 0.0, 0.0, 0.0, 0.0, 0.0, 0.0, 0.0, 1.6154783670463955E9, 2021-03-11 16:59:27.046
114.0, 150341.890625, 187500.0, -187500.015625, -748.3363647460938, -187500.015625, -8889.3779296875, -19265.90625, -9620.458984375, 0.13199999928474426, 0.9020000696182251, 0.3320000171661377, 192.0, 0.0, 0.0, 0.0, 0.0, 0.0, 0.0, 0.0, 0.0, 0.0, 1.6154783670463984E9, 2021-03-11 16:59:27.046
115.0, 150674.46875, 187500.0, -187500.015625, -1033.6787109375, -187500.015625, -8586.4443359375, -18951.775390625, -9348.52734375, 0.13199999928474426, 0.9020000696182251, 0.3320000171661377, 192.0, 0.0, 0.0, 0.0, 0.0, 0.0, 0.0, 0.0, 0.0, 0.0, 1.6154783670464015E9, 2021-03-11 16:59:27.046
116.0, 150963.4375, 187500.0, -187500.015625, -1094.9671630859375, -187500.015625, -8313.7529296875, -18665.986328125, -9080.3291015625, 0.13199999928474426, 0.9020000696182251, 0.3320000171661377, 192.0, 0.0, 0.0, 0.0, 0.0, 0.0, 0.0, 0.0, 0.0, 0.0, 1.6154783670464046E9, 2021-03-11 16:59:27.046
117.0, 150849.890625, 187500.0, -187500.015625, -938.080322265625, -187500.015625, -8416.638671875, -18771.419921875, -9164.3486328125, 0.13199999928474426, 0.9020000696182251, 0.3320000171661377, 192.0, 0.0, 0.0, 0.0, 0.0, 0.0, 0.0, 0.0, 0.0, 0.0, 1.6154783670464077E9, 2021-03-11 16:59:27.046
118.0, 150531.296875, 187500.0, -187500.015625, -708.8184814453125, -187500.015625, -8704.4169921875, -19081.482421875, -9437.1748046875, 0.12800000607967377, 0.9020000696182251, 0.3320000171661377, 192.0, 4.0, 0.0, 28.0, 48.0, 10.0, 96.0, 0.0, 0.0, 0.0, 1.6154783670464103E9, 2021-03-11 16:59:27.046
119.0, 150334.921875, 187500.0, -187500.015625, -757.2100219726562, -187500.015625, -8896.75390625, -19281.53125, -9636.3505859375, 0.12800000607967377, 0.9020000696182251, 0.3320000171661377, 192.0, 0.0, 0.0, 0.0, 0.0, 0.0, 0.0, 0.0, 0.0, 0.0, 1.6154783670464134E9, 2021-03-11 16:59:27.046
120.0, 150679.9375, 187500.0, -187500.015625, -1047.6485595703125, -187500.015625, -8588.1884765625, -18957.228515625, -9354.5625, 0.12800000607967377, 0.9020000696182251, 0.3320000171661377, 192.0, 0.0, 0.0, 0.0, 0.0, 0.0, 0.0, 0.0, 0.0, 0.0, 1.615478367046418E9, 2021-03-11 16:59:27.046
121.0, 151004.046875, 187500.0, -187500.015625, -1091.8826904296875, -187500.015625, -8311.0712890625, -18668.4453125, -9080.4404296875, 0.12800000607967377, 0.9020000696182251, 0.3320000171661377, 192.0, 0.0, 0.0, 0.0, 0.0, 0.0, 0.0, 0.0, 0.0, 0.0, 1.615478367046421E9, 2021-03-11 16:59:27.046
122.0, 150887.484375, 187500.0, -187500.015625, -924.289306640625, -187500.015625, -8416.146484375, -18777.341796875, -9162.4716796875, 0.12800000607967377, 0.9020000696182251, 0.3320000171661377, 192.0, 0.0, 0.0, 0.0, 0.0, 0.0, 0.0, 0.0, 0.0, 0.0, 1.615478367046424E9, 2021-03-11 16:59:27.046
123.0, 150500.578125, 187500.0, -187500.015625, -700.056640625, -187500.015625, -8722.2763671875, -19101.666015625, -9452.1279296875, 0.12800000607967377, 0.9020000696182251, 0.3320000171661377, 192.0, 0.0, 0.0, 0.0, 0.0, 0.0, 0.0, 0.0, 0.0, 0.0, 1.615478367046427E9, 2021-03-11 16:59:27.046
124.0, 150323.4375, 187500.0, -187500.015625, -761.8815307617188, -187500.015625, -8894.8984375, -19273.21484375, -9632.0146484375, 0.12800000607967377, 0.9020000696182251, 0.3320000171661377, 192.0, 0.0, 0.0, 0.0, 0.0, 0.0, 0.0, 0.0, 0.0, 0.0, 1.61547836704643E9, 2021-03-11 16:59:27.046
125.0, 150676.25, 187500.0, -187500.015625, -1040.2724609375, -187500.015625, -8581.4375, -18938.654296875, -9344.458984375, 0.12800000607967377, 0.9020000696182251, 0.3320000171661377, 192.0, 0.0, 0.0, 0.0, 0.0, 0.0, 0.0, 0.0, 0.0, 0.0, 1.6154783670464327E9, 2021-03-11 16:59:27.046
126.0, 150973.421875, 187500.0, -187500.015625, -1074.470703125, -187500.015625, -8303.806640625, -18641.15234375, -9067.0068359375, 0.12800000607967377, 0.9020000696182251, 0.3320000171661377, 192.0, 0.0, 0.0, 0.0, 0.0, 0.0, 0.0, 0.0, 0.0, 0.0, 1.6154783670464356E9, 2021-03-11 16:59:27.046
127.0, 150847.453125, 187500.0, -187500.015625, -917.8073120117188, -187500.015625, -8424.0595703125, -18770.45703125, -9165.0419921875, 0.12800000607967377, 0.9020000696182251, 0.3320000171661377, 192.0, 0.0, 0.0, 0.0, 0.0, 0.0, 0.0, 0.0, 0.0, 0.0, 1.6154783670464387E9, 2021-03-11 16:59:27.046
128.0, 150525.875, 187500.0, -187500.015625, -686.3773193359375, -187500.015625, -8715.548828125, -19080.521484375, -9438.2919921875, 0.12000000476837158, 0.906000018119812, 0.32600000500679016, 192.0, 3.0, 192.0, 28.0, 80.0, 10.0, 48.0, 0.0, 0.0, 0.0, 1.6154783670464416E9, 2021-03-11 16:59:27.046
129.0, 150365.125, 187500.0, -187500.015625, -753.9019775390625, -187500.015625, -8871.1162109375, -19240.873046875, -9604.41015625, 0.12000000476837158, 0.906000018119812, 0.32600000500679016, 192.0, 0.0, 0.0, 0.0, 0.0, 0.0, 0.0, 0.0, 0.0, 0.0, 1.615478367046445E9, 2021-03-11 16:59:27.046
130.0, 150711.734375, 187500.0, -187500.015625, -1036.137451171875, -187500.015625, -8556.91796875, -18909.060546875, -9318.576171875, 0.12000000476837158, 0.906000018119812, 0.32600000500679016, 192.0, 0.0, 0.0, 0.0, 0.0, 0.0, 0.0, 0.0, 0.0, 0.0, 1.6154783670464475E9, 2021-03-11 16:59:27.046
131.0, 150981.0625, 187500.0, -187500.015625, -1075.0294189453125, -187500.015625, -8303.650390625, -18641.935546875, -9066.9404296875, 0.12000000476837158, 0.906000018119812, 0.32600000500679016, 192.0, 0.0, 0.0, 0.0, 0.0, 0.0, 0.0, 0.0, 0.0, 0.0, 1.6154783670464506E9, 2021-03-11 16:59:27.046
132.0, 150847.8125, 187500.0, -187500.015625, -924.088134765625, -187500.015625, -8422.8076171875, -18769.25, -9166.919921875, 0.12000000476837158, 0.906000018119812, 0.32600000500679016, 192.0, 0.0, 0.0, 0.0, 0.0, 0.0, 0.0, 0.0, 0.0, 0.0, 1.6154783670464537E9, 2021-03-11 16:59:27.046
133.0, 150521.65625, 187500.0, -187500.015625, -692.0546875, -187500.015625, -8718.7890625, -19086.19921875, -9449.2666015625, 0.12000000476837158, 0.906000018119812, 0.32600000500679016, 192.0, 0.0, 0.0, 0.0, 0.0, 0.0, 0.0, 0.0, 0.0, 0.0, 1.6154783670464568E9, 2021-03-11 16:59:27.046
134.0, 150341.9375, 187500.0, -187500.015625, -776.0302124023438, -187500.015625, -8887.701171875, -19266.30859375, -9632.1708984375, 0.12000000476837158, 0.906000018119812, 0.32600000500679016, 192.0, 0.0, 0.0, 0.0, 0.0, 0.0, 0.0, 0.0, 0.0, 0.0, 1.6154783670464597E9, 2021-03-11 16:59:27.046
135.0, 150710.515625, 187500.0, -187500.015625, -1064.1441650390625, -187500.015625, -8551.3974609375, -18912.01171875, -9323.470703125, 0.12000000476837158, 0.906000018119812, 0.32600000500679016, 192.0, 0.0, 0.0, 0.0, 0.0, 0.0, 0.0, 0.0, 0.0, 0.0, 1.6154783670464625E9, 2021-03-11 16:59:27.046
136.0, 150981.78125, 187500.0, -187500.015625, -1087.0546875, -187500.015625, -8296.2744140625, -18645.779296875, -9069.3095703125, 0.12000000476837158, 0.906000018119812, 0.32600000500679016, 192.0, 0.0, 0.0, 0.0, 0.0, 0.0, 0.0, 0.0, 0.0, 0.0, 1.6154783670464656E9, 2021-03-11 16:59:27.046
137.0, 150853.90625, 187500.0, -187500.015625, -919.9307250976562, -187500.015625, -8415.9677734375, -18763.88671875, -9164.908203125, 0.12000000476837158, 0.906000018119812, 0.32600000500679016, 192.0, 0.0, 0.0, 0.0, 0.0, 0.0, 0.0, 0.0, 0.0, 0.0, 1.6154783670464687E9, 2021-03-11 16:59:27.046
138.0, 150524.078125, 187500.0, -187500.015625, -695.3627319335938, -187500.015625, -8707.4794921875, -19068.33984375, -9439.23046875, 0.12400000542402267, 0.9040000438690186, 0.33000001311302185, 192.0, 3.0, 224.0, 28.0, 64.0, 10.0, 80.0, 0.0, 0.0, 0.0, 1.615478367525298E9, 2021-03-11 16:59:27.525
139.0, 150374.375, 187500.0, -187500.015625, -767.2459716796875, -187500.015625, -8854.5087890625, -19229.00390625, -9601.4375, 0.12400000542402267, 0.9040000438690186, 0.33000001311302185, 192.0, 0.0, 0.0, 0.0, 0.0, 0.0, 0.0, 0.0, 0.0, 0.0, 1.615478367525326E9, 2021-03-11 16:59:27.525
140.0, 150736.09375, 187500.0, -187500.015625, -1055.2034912109375, -187500.015625, -8532.4873046875, -18895.515625, -9307.84765625, 0.12400000542402267, 0.9040000438690186, 0.33000001311302185, 192.0, 0.0, 0.0, 0.0, 0.0, 0.0, 0.0, 0.0, 0.0, 0.0, 1.6154783675253377E9, 2021-03-11 16:59:27.525
141.0, 150984.984375, 187500.0, -187500.015625, -1084.797119140625, -187500.015625, -8284.271484375, -18629.798828125, -9059.6533203125, 0.12400000542402267, 0.9040000438690186, 0.33000001311302185, 192.0, 0.0, 0.0, 0.0, 0.0, 0.0, 0.0, 0.0, 0.0, 0.0, 1.615478367525355E9, 2021-03-11 16:59:27.525
142.0, 150852.203125, 187500.0, -187500.015625, -909.291259765625, -187500.015625, -8407.138671875, -18762.03125, -9164.6845703125, 0.12400000542402267, 0.9040000438690186, 0.33000001311302185, 192.0, 0.0, 0.0, 0.0, 0.0, 0.0, 0.0, 0.0, 0.0, 0.0, 1.6154783675253696E9, 2021-03-11 16:59:27.525
143.0, 150527.390625, 187500.0, -187500.015625, -684.2315673828125, -187500.015625, -8713.3359375, -19095.33984375, -9457.201171875, 0.12400000542402267, 0.9040000438690186, 0.33000001311302185, 192.0, 0.0, 0.0, 0.0, 0.0, 0.0, 0.0, 0.0, 0.0, 0.0, 1.6154783675253923E9, 2021-03-11 16:59:27.525
144.0, 150383.15625, 187500.0, -187500.015625, -770.8892822265625, -187500.015625, -8861.7734375, -19253.970703125, -9616.7705078125, 0.12400000542402267, 0.9040000438690186, 0.33000001311302185, 192.0, 0.0, 0.0, 0.0, 0.0, 0.0, 0.0, 0.0, 0.0, 0.0, 1.6154783675254147E9, 2021-03-11 16:59:27.525
145.0, 150748.609375, 187500.0, -187500.015625, -1052.76708984375, -187500.015625, -8509.5322265625, -18878.484375, -9289.5859375, 0.12400000542402267, 0.9040000438690186, 0.33000001311302185, 192.0, 0.0, 0.0, 0.0, 0.0, 0.0, 0.0, 0.0, 0.0, 0.0, 1.615478367525432E9, 2021-03-11 16:59:27.525
146.0, 151003.984375, 187500.0, -187500.015625, -1058.1092529296875, -187500.015625, -8269.630859375, -18622.623046875, -9050.3779296875, 0.12400000542402267, 0.9040000438690186, 0.33000001311302185, 192.0, 0.0, 0.0, 0.0, 0.0, 0.0, 0.0, 0.0, 0.0, 0.0, 1.615478367525441E9, 2021-03-11 16:59:27.525
147.0, 150853.265625, 187500.0, -187500.015625, -894.9414672851562, -187500.015625, -8406.982421875, -18760.623046875, -9161.3310546875, 0.12400000542402267, 0.9040000438690186, 0.33000001311302185, 192.0, 0.0, 0.0, 0.0, 0.0, 0.0, 0.0, 0.0, 0.0, 0.0, 1.6154783675254636E9, 2021-03-11 16:59:27.525
148.0, 150517.0625, 187500.0, -187500.015625, -674.1509399414062, -187500.015625, -8714.966796875, -19084.41015625, -9448.328125, 0.12600000202655792, 0.906000018119812, 0.32200002670288086, 192.0, 3.0, 240.0, 28.0, 80.0, 10.0, 16.0, 0.0, 0.0, 0.0, 1.6154783675254734E9, 2021-03-11 16:59:27.525
149.0, 150379.09375, 187500.0, -187500.015625, -772.0068969726562, -187500.015625, -8849.8828125, -19224.890625, -9596.498046875, 0.12600000202655792, 0.906000018119812, 0.32200002670288086, 192.0, 0.0, 0.0, 0.0, 0.0, 0.0, 0.0, 0.0, 0.0, 0.0, 1.615478367525476E9, 2021-03-11 16:59:27.525
150.0, 150750.484375, 187500.0, -187500.015625, -1059.7408447265625, -187500.015625, -8516.1484375, -18875.3984375, -9288.8037109375, 0.12600000202655792, 0.906000018119812, 0.32200002670288086, 192.0, 0.0, 0.0, 0.0, 0.0, 0.0, 0.0, 0.0, 0.0, 0.0, 1.6154783675254784E9, 2021-03-11 16:59:27.525
151.0, 151000.6875, 187500.0, -187500.015625, -1072.7271728515625, -187500.015625, -8291.6025390625, -18643.34375, -9063.609375, 0.12600000202655792, 0.906000018119812, 0.32200002670288086, 192.0, 0.0, 0.0, 0.0, 0.0, 0.0, 0.0, 0.0, 0.0, 0.0, 1.6154783675254812E9, 2021-03-11 16:59:27.525
152.0, 150859.359375, 187500.0, -187500.015625, -908.7548217773438, -187500.015625, -8427.0546875, -18784.271484375, -9175.2119140625, 0.12600000202655792, 0.906000018119812, 0.32200002670288086, 192.0, 0.0, 0.0, 0.0, 0.0, 0.0, 0.0, 0.0, 0.0, 0.0, 1.6154783675254836E9, 2021-03-11 16:59:27.525
153.0, 150513.53125, 187500.0, -187500.015625, -680.811767578125, -187500.015625, -8730.61328125, -19100.8828125, -9458.9453125, 0.12600000202655792, 0.906000018119812, 0.32200002670288086, 192.0, 0.0, 0.0, 0.0, 0.0, 0.0, 0.0, 0.0, 0.0, 0.0, 1.6154783675254862E9, 2021-03-11 16:59:27.525
154.0, 150366.28125, 187500.0, -187500.015625, -790.8717651367188, -187500.015625, -8868.76953125, -19250.259765625, -9611.5849609375, 0.12600000202655792, 0.906000018119812, 0.32200002670288086, 192.0, 0.0, 0.0, 0.0, 0.0, 0.0, 0.0, 0.0, 0.0, 0.0, 1.6154783675254889E9, 2021-03-11 16:59:27.525
155.0, 150757.796875, 187500.0, -187500.015625, -1083.1878662109375, -187500.015625, -8517.8916015625, -18881.478515625, -9285.40625, 0.12600000202655792, 0.906000018119812, 0.32200002670288086, 192.0, 0.0, 0.0, 0.0, 0.0, 0.0, 0.0, 0.0, 0.0, 0.0, 1.6154783675254915E9, 2021-03-11 16:59:27.525
156.0, 150990.34375, 187500.0, -187500.015625, -1082.6513671875, -187500.015625, -8301.68359375, -18653.87109375, -9067.2978515625, 0.12600000202655792, 0.906000018119812, 0.32200002670288086, 192.0, 0.0, 0.0, 0.0, 0.0, 0.0, 0.0, 0.0, 0.0, 0.0, 1.615478367525494E9, 2021-03-11 16:59:27.525
157.0, 150832.34375, 187500.0, -187500.015625, -914.3427734375, -187500.015625, -8436.017578125, -18798.8671875, -9180.9560546875, 0.12600000202655792, 0.906000018119812, 0.32200002670288086, 192.0, 0.0, 0.0, 0.0, 0.0, 0.0, 0.0, 0.0, 0.0, 0.0, 1.6154783675254967E9, 2021-03-11 16:59:27.525
158.0, 150496.71875, 187500.0, -187500.015625, -698.5143432617188, -187500.015625, -8730.970703125, -19113.400390625, -9459.458984375, 0.13600000739097595, 0.906000018119812, 0.32200002670288086, 192.0, 4.0, 64.0, 28.0, 80.0, 10.0, 16.0, 0.0, 0.0, 0.0, 1.6154783675254996E9, 2021-03-11 16:59:27.525
159.0, 150372.078125, 187500.0, -187500.015625, -805.4227294921875, -187500.015625, -8858.0185546875, -19239.509765625, -9599.6943359375, 0.13600000739097595, 0.906000018119812, 0.32200002670288086, 192.0, 0.0, 0.0, 0.0, 0.0, 0.0, 0.0, 0.0, 0.0, 0.0, 1.6154783675255024E9, 2021-03-11 16:59:27.525
160.0, 150755.21875, 187500.0, -187500.015625, -1100.7340087890625, -187500.015625, -8515.09765625, -18874.013671875, -9281.2041015625, 0.13600000739097595, 0.906000018119812, 0.32200002670288086, 192.0, 0.0, 0.0, 0.0, 0.0, 0.0, 0.0, 0.0, 0.0, 0.0, 1.6154783675255053E9, 2021-03-11 16:59:27.525
161.0, 150985.9375, 187500.0, -187500.015625, -1088.015869140625, -187500.015625, -8292.3408203125, -18647.859375, -9058.6923828125, 0.13600000739097595, 0.906000018119812, 0.32200002670288086, 192.0, 0.0, 0.0, 0.0, 0.0, 0.0, 0.0, 0.0, 0.0, 0.0, 1.6154783675255077E9, 2021-03-11 16:59:27.525
162.0, 150836.0, 187500.0, -187500.015625, -898.5177612304688, -187500.015625, -8438.8115234375, -18816.61328125, -9187.37109375, 0.13600000739097595, 0.906000018119812, 0.32200002670288086, 192.0, 0.0, 0.0, 0.0, 0.0, 0.0, 0.0, 0.0, 0.0, 0.0, 1.61547836752551E9, 2021-03-11 16:59:27.525
163.0, 150480.453125, 187500.0, -187500.015625, -685.8856201171875, -187500.015625, -8748.271484375, -19136.466796875, -9478.279296875, 0.13600000739097595, 0.906000018119812, 0.32200002670288086, 192.0, 0.0, 0.0, 0.0, 0.0, 0.0, 0.0, 0.0, 0.0, 0.0, 1.6154783675255127E9, 2021-03-11 16:59:27.525
164.0, 150369.5625, 187500.0, -187500.015625, -796.1243896484375, -187500.015625, -8847.3115234375, -19226.1875, -9591.6025390625, 0.13600000739097595, 0.906000018119812, 0.32200002670288086, 192.0, 0.0, 0.0, 0.0, 0.0, 0.0, 0.0, 0.0, 0.0, 0.0, 1.6154783675255153E9, 2021-03-11 16:59:27.525
165.0, 150780.640625, 187500.0, -187500.015625, -1080.1927490234375, -187500.015625, -8481.1904296875, -18845.291015625, -9252.0126953125, 0.13600000739097595, 0.906000018119812, 0.32200002670288086, 192.0, 0.0, 0.0, 0.0, 0.0, 0.0, 0.0, 0.0, 0.0, 0.0, 1.6154783675255177E9, 2021-03-11 16:59:27.525
166.0, 150977.4375, 187500.0, -187500.015625, -1065.9993896484375, -187500.015625, -8279.2421875, -18634.513671875, -9049.86328125, 0.13600000739097595, 0.906000018119812, 0.32200002670288086, 192.0, 0.0, 0.0, 0.0, 0.0, 0.0, 0.0, 0.0, 0.0, 0.0, 1.6154783675255227E9, 2021-03-11 16:59:27.525
167.0, 150812.953125, 187500.0, -187500.015625, -897.35546875, -187500.015625, -8434.005859375, -18801.482421875, -9184.3095703125, 0.13600000739097595, 0.906000018119812, 0.32200002670288086, 192.0, 0.0, 0.0, 0.0, 0.0, 0.0, 0.0, 0.0, 0.0, 0.0, 1.6154783675255256E9, 2021-03-11 16:59:27.525
168.0, 150485.625, 187500.0, -187500.015625, -682.0410766601562, -187500.015625, -8737.498046875, -19115.546875, -9473.205078125, 0.13600000739097595, 0.9000000357627869, 0.3240000009536743, 192.0, 4.0, 64.0, 28.0, 32.0, 10.0, 32.0, 0.0, 0.0, 0.0, 1.6154783675255282E9, 2021-03-11 16:59:27.525
169.0, 150380.828125, 187500.0, -187500.015625, -811.6141357421875, -187500.015625, -8848.0048828125, -19235.12890625, -9606.1982421875, 0.13600000739097595, 0.9000000357627869, 0.3240000009536743, 192.0, 0.0, 0.0, 0.0, 0.0, 0.0, 0.0, 0.0, 0.0, 0.0, 1.6154783675255308E9, 2021-03-11 16:59:27.525
170.0, 150774.109375, 187500.0, -187500.015625, -1110.14404296875, -187500.015625, -8492.634765625, -18858.880859375, -9276.2421875, 0.13600000739097595, 0.9000000357627869, 0.3240000009536743, 192.0, 0.0, 0.0, 0.0, 0.0, 0.0, 0.0, 0.0, 0.0, 0.0, 1.6154783675255337E9, 2021-03-11 16:59:27.525
171.0, 150988.109375, 187500.0, -187500.015625, -1091.6815185546875, -187500.015625, -8293.234375, -18645.4453125, -9072.70703125, 0.13600000739097595, 0.9000000357627869, 0.3240000009536743, 192.0, 0.0, 0.0, 0.0, 0.0, 0.0, 0.0, 0.0, 0.0, 0.0, 1.6154783675255365E9, 2021-03-11 16:59:27.525
172.0, 150814.640625, 187500.0, -187500.015625, -923.6187744140625, -187500.015625, -8449.9423828125, -18817.6875, -9211.2431640625, 0.13600000739097595, 0.9000000357627869, 0.3240000009536743, 192.0, 0.0, 0.0, 0.0, 0.0, 0.0, 0.0, 0.0, 0.0, 0.0, 1.6154783675255394E9, 2021-03-11 16:59:27.525
173.0, 150474.984375, 187500.0, -187500.015625, -712.439453125, -187500.015625, -8754.5517578125, -19146.50390625, -9503.4697265625, 0.13600000739097595, 0.9000000357627869, 0.3240000009536743, 192.0, 0.0, 0.0, 0.0, 0.0, 0.0, 0.0, 0.0, 0.0, 0.0, 1.6154783675255425E9, 2021-03-11 16:59:27.525
174.0, 150376.578125, 187500.0, -187500.015625, -844.3594970703125, -187500.015625, -8852.6982421875, -19247.421875, -9613.6640625, 0.13600000739097595, 0.9000000357627869, 0.3240000009536743, 192.0, 0.0, 0.0, 0.0, 0.0, 0.0, 0.0, 0.0, 0.0, 0.0, 1.615478367525545E9, 2021-03-11 16:59:27.525
175.0, 150767.15625, 187500.0, -187500.015625, -1127.578369140625, -187500.015625, -8495.673828125, -18847.37109375, -9267.703125, 0.13600000739097595, 0.9000000357627869, 0.3240000009536743, 192.0, 0.0, 0.0, 0.0, 0.0, 0.0, 0.0, 0.0, 0.0, 0.0, 1.6154783675255475E9, 2021-03-11 16:59:27.525
176.0, 150974.875, 187500.0, -187500.015625, -1092.016845703125, -187500.015625, -8295.9609375, -18623.271484375, -9060.3017578125, 0.13600000739097595, 0.9000000357627869, 0.3240000009536743, 192.0, 0.0, 0.0, 0.0, 0.0, 0.0, 0.0, 0.0, 0.0, 0.0, 1.6154783675255504E9, 2021-03-11 16:59:27.525
177.0, 150806.875, 187500.0, -187500.015625, -903.748046875, -187500.015625, -8447.6181640625, -18789.814453125, -9191.5732421875, 0.13600000739097595, 0.9000000357627869, 0.3240000009536743, 192.0, 0.0, 0.0, 0.0, 0.0, 0.0, 0.0, 0.0, 0.0, 0.0, 1.615478367525553E9, 2021-03-11 16:59:27.525
178.0, 150456.5, 187500.0, -187500.015625, -707.14208984375, -187500.015625, -8765.638671875, -19128.197265625, -9494.1044921875, 0.1340000033378601, 0.906000018119812, 0.31200000643730164, 192.0, 4.0, 48.0, 28.0, 80.0, 9.0, 192.0, 0.0, 0.0, 0.0, 1.6154783675255556E9, 2021-03-11 16:59:27.525
179.0, 150380.5625, 187500.0, -187500.015625, -836.4246215820312, -187500.015625, -8844.115234375, -19214.20703125, -9585.880859375, 0.1340000033378601, 0.906000018119812, 0.31200000643730164, 192.0, 0.0, 0.0, 0.0, 0.0, 0.0, 0.0, 0.0, 0.0, 0.0, 1.6154783675255587E9, 2021-03-11 16:59:27.525
180.0, 150799.75, 187500.0, -187500.015625, -1115.7767333984375, -187500.015625, -8469.09765625, -18820.056640625, -9232.65625, 0.1340000033378601, 0.906000018119812, 0.31200000643730164, 192.0, 0.0, 0.0, 0.0, 0.0, 0.0, 0.0, 0.0, 0.0, 0.0, 1.615478367525561E9, 2021-03-11 16:59:27.525
181.0, 150982.203125, 187500.0, -187500.015625, -1080.8409423828125, -187500.015625, -8295.9169921875, -18638.44921875, -9054.333984375, 0.1340000033378601, 0.906000018119812, 0.31200000643730164, 192.0, 0.0, 0.0, 0.0, 0.0, 0.0, 0.0, 0.0, 0.0, 0.0, 1.615478367525564E9, 2021-03-11 16:59:27.525
182.0, 150801.921875, 187500.0, -187500.015625, -896.8413696289062, -187500.015625, -8463.30859375, -18818.71484375, -9199.28515625, 0.1340000033378601, 0.906000018119812, 0.31200000643730164, 192.0, 0.0, 0.0, 0.0, 0.0, 0.0, 0.0, 0.0, 0.0, 0.0, 1.6154783675255668E9, 2021-03-11 16:59:27.525
183.0, 150443.421875, 187500.0, -187500.015625, -705.1304321289062, -187500.015625, -8767.7841796875, -19142.279296875, -9489.34375, 0.1340000033378601, 0.906000018119812, 0.31200000643730164, 192.0, 0.0, 0.0, 0.0, 0.0, 0.0, 0.0, 0.0, 0.0, 0.0, 1.6154783675255694E9, 2021-03-11 16:59:27.525
184.0, 150392.171875, 187500.0, -187500.015625, -840.135009765625, -187500.015625, -8826.6142578125, -19203.298828125, -9564.1318359375, 0.1340000033378601, 0.906000018119812, 0.31200000643730164, 192.0, 0.0, 0.0, 0.0, 0.0, 0.0, 0.0, 0.0, 0.0, 0.0, 1.6154783675255723E9, 2021-03-11 16:59:27.525
