%OpenBCI Raw EEG Data
%Number of channels = 8
%Sample Rate = 250 Hz
%Board = OpenBCI_GUI$BoardCytonSerial
Sample Index, EXG Channel 0, EXG Channel 1, EXG Channel 2, EXG Channel 3, EXG Channel 4, EXG Channel 5, EXG Channel 6, EXG Channel 7, Accel Channel 0, Accel Channel 1, Accel Channel 2, Other, Other, Other, Other, Other, Other, Other, Analog Channel 0, Analog Channel 1, Analog Channel 2, Timestamp, Timestamp (Formatted)
209.0, 160153.171875, 187500.0, -30396.962890625, -13329.7080078125, 24353.521484375, -24430.92578125, -25424.236328125, -25800.05859375, -0.07600000500679016, 0.9440000653266907, 0.21400001645088196, 192.0, 0.0, 0.0, 0.0, 0.0, 0.0, 0.0, 0.0, 0.0, 0.0, 1.6154779152502162E9, 2021-03-11 16:51:55.250
210.0, 160073.796875, 187500.0, -30483.53125, -13457.0009765625, 26012.333984375, -24564.857421875, -25480.00390625, -25903.099609375, -0.07600000500679016, 0.9440000653266907, 0.21400001645088196, 192.0, 0.0, 0.0, 0.0, 0.0, 0.0, 0.0, 0.0, 0.0, 0.0, 1.615477915250357E9, 2021-03-11 16:51:55.250
211.0, 159964.015625, 187500.0, -24007.203125, -13604.03125, 27966.12109375, -24716.53515625, -25581.5703125, -26032.62890625, -0.07600000500679016, 0.9440000653266907, 0.21400001645088196, 192.0, 0.0, 0.0, 0.0, 0.0, 0.0, 0.0, 0.0, 0.0, 0.0, 1.6154779152503638E9, 2021-03-11 16:51:55.250
212.0, 159950.21875, 187500.0, -19262.15234375, -13584.361328125, 27225.630859375, -24689.490234375, -25598.55859375, -26026.37109375, -0.07600000500679016, 0.9440000653266907, 0.21400001645088196, 192.0, 0.0, 0.0, 0.0, 0.0, 0.0, 0.0, 0.0, 0.0, 0.0, 1.615477915250368E9, 2021-03-11 16:51:55.250
213.0, 160063.15625, 187500.0, -23785.205078125, -13406.888671875, 24155.015625, -24500.796875, -25483.53515625, -25863.671875, -0.07600000500679016, 0.9440000653266907, 0.21400001645088196, 192.0, 0.0, 0.0, 0.0, 0.0, 0.0, 0.0, 0.0, 0.0, 0.0, 1.6154779152503738E9, 2021-03-11 16:51:55.250
214.0, 160133.6875, 187500.0, -30435.765625, -13333.6640625, 23229.8984375, -24431.6171875, -25407.181640625, -25797.130859375, -0.08400000631809235, 0.9600000381469727, 0.21400001645088196, 192.0, 253.0, 96.0, 30.0, 0.0, 6.0, 176.0, 0.0, 0.0, 0.0, 1.6154779152503836E9, 2021-03-11 16:51:55.250
215.0, 160055.203125, 187500.0, -30425.86328125, -13455.1689453125, 25173.44921875, -24559.89453125, -25460.9609375, -25895.814453125, -0.08400000631809235, 0.9600000381469727, 0.21400001645088196, 192.0, 0.0, 0.0, 0.0, 0.0, 0.0, 0.0, 0.0, 0.0, 0.0, 1.6154779152504423E9, 2021-03-11 16:51:55.250
216.0, 159937.390625, 187500.0, -23913.146484375, -13602.3544921875, 27366.134765625, -24715.708984375, -25568.763671875, -26031.064453125, -0.08400000631809235, 0.9600000381469727, 0.21400001645088196, 192.0, 0.0, 0.0, 0.0, 0.0, 0.0, 0.0, 0.0, 0.0, 0.0, 1.6154779152504468E9, 2021-03-11 16:51:55.250
217.0, 159944.3125, 187500.0, -19233.921875, -13570.056640625, 26789.34765625, -24674.447265625, -25579.89453125, -26008.443359375, -0.08400000631809235, 0.9600000381469727, 0.21400001645088196, 192.0, 0.0, 0.0, 0.0, 0.0, 0.0, 0.0, 0.0, 0.0, 0.0, 1.6154779152504528E9, 2021-03-11 16:51:55.250
218.0, 160077.6875, 187500.0, -23789.33984375, -13376.53515625, 23903.53515625, -24473.236328125, -25457.787109375, -25838.68359375, -0.08400000631809235, 0.9600000381469727, 0.21400001645088196, 192.0, 0.0, 0.0, 0.0, 0.0, 0.0, 0.0, 0.0, 0.0, 0.0, 1.6154779152504601E9, 2021-03-11 16:51:55.250
219.0, 160136.34375, 187500.0, -30410.6640625, -13325.23828125, 23051.48828125, -24427.9296875, -25402.310546875, -25793.8671875, -0.08400000631809235, 0.9600000381469727, 0.21400001645088196, 192.0, 0.0, 0.0, 0.0, 0.0, 0.0, 0.0, 0.0, 0.0, 0.0, 1.6154779152504718E9, 2021-03-11 16:51:55.250
220.0, 160052.765625, 187500.0, -30341.822265625, -13459.7509765625, 25029.974609375, -24563.380859375, -25464.759765625, -25902.49609375, -0.08400000631809235, 0.9600000381469727, 0.21400001645088196, 192.0, 0.0, 0.0, 0.0, 0.0, 0.0, 0.0, 0.0, 0.0, 0.0, 1.6154779152504826E9, 2021-03-11 16:51:55.250
221.0, 159955.65625, 187500.0, -23788.3125, -13599.9404296875, 27239.533203125, -24710.9921875, -25569.076171875, -26031.376953125, -0.08400000631809235, 0.9600000381469727, 0.21400001645088196, 192.0, 0.0, 0.0, 0.0, 0.0, 0.0, 0.0, 0.0, 0.0, 0.0, 1.6154779152504952E9, 2021-03-11 16:51:55.250
222.0, 159950.15625, 187500.0, -19203.009765625, -13578.2822265625, 26627.36328125, -24680.884765625, -25589.70703125, -26020.625, -0.08400000631809235, 0.9600000381469727, 0.21400001645088196, 192.0, 0.0, 0.0, 0.0, 0.0, 0.0, 0.0, 0.0, 0.0, 0.0, 1.6154779152505012E9, 2021-03-11 16:51:55.250
223.0, 160055.578125, 187500.0, -23860.10546875, -13416.34375, 23728.455078125, -24500.685546875, -25490.419921875, -25870.376953125, -0.08400000631809235, 0.9600000381469727, 0.21400001645088196, 192.0, 0.0, 0.0, 0.0, 0.0, 0.0, 0.0, 0.0, 0.0, 0.0, 1.6154779152505207E9, 2021-03-11 16:51:55.250
224.0, 160130.421875, 187500.0, -30388.0234375, -13345.421875, 22949.697265625, -24436.357421875, -25415.630859375, -25804.349609375, -0.0820000022649765, 0.940000057220459, 0.22200001776218414, 192.0, 253.0, 112.0, 29.0, 96.0, 6.0, 240.0, 0.0, 0.0, 0.0, 1.615477915250534E9, 2021-03-11 16:51:55.250
225.0, 160062.625, 187500.0, -30184.822265625, -13461.740234375, 24981.716796875, -24562.0859375, -25464.6484375, -25901.06640625, -0.0820000022649765, 0.940000057220459, 0.22200001776218414, 192.0, 0.0, 0.0, 0.0, 0.0, 0.0, 0.0, 0.0, 0.0, 0.0, 1.6154779152505436E9, 2021-03-11 16:51:55.250
226.0, 159955.453125, 187500.0, -23578.765625, -13605.193359375, 27207.1015625, -24718.099609375, -25577.994140625, -26038.865234375, -0.0820000022649765, 0.940000057220459, 0.22200001776218414, 192.0, 0.0, 0.0, 0.0, 0.0, 0.0, 0.0, 0.0, 0.0, 0.0, 1.6154779152505608E9, 2021-03-11 16:51:55.250
227.0, 159955.515625, 187500.0, -19049.251953125, -13573.38671875, 26588.13671875, -24681.82421875, -25598.55859375, -26022.99609375, -0.0820000022649765, 0.940000057220459, 0.22200001776218414, 192.0, 0.0, 0.0, 0.0, 0.0, 0.0, 0.0, 0.0, 0.0, 0.0, 1.6154779152505748E9, 2021-03-11 16:51:55.250
228.0, 160077.875, 187500.0, -23707.287109375, -13388.8955078125, 23714.439453125, -24485.240234375, -25482.08203125, -25853.45703125, -0.0820000022649765, 0.940000057220459, 0.22200001776218414, 192.0, 0.0, 0.0, 0.0, 0.0, 0.0, 0.0, 0.0, 0.0, 0.0, 1.6154779152505984E9, 2021-03-11 16:51:55.250
229.0, 160129.640625, 187500.0, -30239.0703125, -13340.548828125, 22876.673828125, -24438.009765625, -25418.537109375, -25801.84765625, -0.0820000022649765, 0.940000057220459, 0.22200001776218414, 192.0, 0.0, 0.0, 0.0, 0.0, 0.0, 0.0, 0.0, 0.0, 0.0, 1.6154779152506251E9, 2021-03-11 16:51:55.250
230.0, 160068.65625, 187500.0, -30020.044921875, -13449.0888671875, 24679.431640625, -24555.0, -25453.740234375, -25888.080078125, -0.0820000022649765, 0.940000057220459, 0.22200001776218414, 192.0, 0.0, 0.0, 0.0, 0.0, 0.0, 0.0, 0.0, 0.0, 0.0, 1.6154779152506444E9, 2021-03-11 16:51:55.250
231.0, 159976.53125, 187500.0, -23443.3125, -13584.4287109375, 26626.26953125, -24695.14453125, -25554.32421875, -26013.71875, -0.0820000022649765, 0.940000057220459, 0.22200001776218414, 192.0, 0.0, 0.0, 0.0, 0.0, 0.0, 0.0, 0.0, 0.0, 0.0, 1.6154779152506561E9, 2021-03-11 16:51:55.250
232.0, 159965.078125, 187500.0, -19045.8984375, -13559.283203125, 25872.27734375, -24660.208984375, -25574.283203125, -25997.3359375, -0.0820000022649765, 0.940000057220459, 0.22200001776218414, 192.0, 0.0, 0.0, 0.0, 0.0, 0.0, 0.0, 0.0, 0.0, 0.0, 1.6154779152506645E9, 2021-03-11 16:51:55.250
233.0, 160081.21875, 187500.0, -23822.578125, -13384.8056640625, 23053.095703125, -24479.33984375, -25463.576171875, -25842.259765625, -0.0820000022649765, 0.940000057220459, 0.22200001776218414, 192.0, 0.0, 0.0, 0.0, 0.0, 0.0, 0.0, 0.0, 0.0, 0.0, 1.61547791525068E9, 2021-03-11 16:51:55.250
234.0, 160146.890625, 187500.0, -30309.3671875, -13325.3046875, 22371.994140625, -24421.73828125, -25395.759765625, -25783.65234375, -0.08000000566244125, 0.9100000262260437, 0.23200000822544098, 192.0, 253.0, 128.0, 28.0, 112.0, 7.0, 64.0, 0.0, 0.0, 0.0, 1.6154779152506883E9, 2021-03-11 16:51:55.250
235.0, 160073.15625, 187500.0, -30008.35546875, -13438.9189453125, 24393.21875, -24544.29296875, -25442.005859375, -25879.20703125, -0.08000000566244125, 0.9100000262260437, 0.23200000822544098, 192.0, 0.0, 0.0, 0.0, 0.0, 0.0, 0.0, 0.0, 0.0, 0.0, 1.6154779152506964E9, 2021-03-11 16:51:55.250
236.0, 159974.015625, 187500.0, -23396.107421875, -13577.4326171875, 26514.890625, -24695.4140625, -25547.328125, -26013.98828125, -0.08000000566244125, 0.9100000262260437, 0.23200000822544098, 192.0, 0.0, 0.0, 0.0, 0.0, 0.0, 0.0, 0.0, 0.0, 0.0, 1.6154779152507005E9, 2021-03-11 16:51:55.250
237.0, 159965.234375, 187500.0, -19081.21484375, -13550.6103515625, 25808.015625, -24659.91796875, -25573.009765625, -25997.916015625, -0.08000000566244125, 0.9100000262260437, 0.23200000822544098, 192.0, 0.0, 0.0, 0.0, 0.0, 0.0, 0.0, 0.0, 0.0, 0.0, 1.6154779152507076E9, 2021-03-11 16:51:55.250
238.0, 160078.921875, 187500.0, -23933.107421875, -13380.1337890625, 23013.7578125, -24482.04296875, -25466.28125, -25848.763671875, -0.08000000566244125, 0.9100000262260437, 0.23200000822544098, 192.0, 0.0, 0.0, 0.0, 0.0, 0.0, 0.0, 0.0, 0.0, 0.0, 1.6154779152507124E9, 2021-03-11 16:51:55.250
239.0, 160133.546875, 187500.0, -30390.369140625, -13337.1962890625, 22333.34765625, -24448.046875, -25411.294921875, -25810.943359375, -0.08000000566244125, 0.9100000262260437, 0.23200000822544098, 192.0, 0.0, 0.0, 0.0, 0.0, 0.0, 0.0, 0.0, 0.0, 0.0, 1.6154779152507572E9, 2021-03-11 16:51:55.250
240.0, 160055.375, 187500.0, -30053.23828125, -13464.623046875, 24347.642578125, -24581.84375, -25466.50390625, -25911.4609375, -0.08000000566244125, 0.9100000262260437, 0.23200000822544098, 192.0, 0.0, 0.0, 0.0, 0.0, 0.0, 0.0, 0.0, 0.0, 0.0, 1.6154779152507713E9, 2021-03-11 16:51:55.250
241.0, 159958.265625, 187500.0, -23402.4765625, -13597.1025390625, 26464.95703125, -24717.5859375, -25560.716796875, -26032.78515625, -0.08000000566244125, 0.9100000262260437, 0.23200000822544098, 192.0, 0.0, 0.0, 0.0, 0.0, 0.0, 0.0, 0.0, 0.0, 0.0, 1.6154779152507803E9, 2021-03-11 16:51:55.250
242.0, 159957.921875, 187500.0, -19162.9765625, -13565.138671875, 25712.150390625, -24668.3671875, -25575.244140625, -26006.74609375, -0.08000000566244125, 0.9100000262260437, 0.23200000822544098, 192.0, 0.0, 0.0, 0.0, 0.0, 0.0, 0.0, 0.0, 0.0, 0.0, 1.6154779152507875E9, 2021-03-11 16:51:55.250
243.0, 160076.65625, 187500.0, -24087.2890625, -13386.6162109375, 22921.892578125, -24466.642578125, -25461.5859375, -25840.515625, -0.08000000566244125, 0.9100000262260437, 0.23200000822544098, 192.0, 0.0, 0.0, 0.0, 0.0, 0.0, 0.0, 0.0, 0.0, 0.0, 1.615477915250794E9, 2021-03-11 16:51:55.250
244.0, 160137.328125, 187500.0, -30453.71484375, -13336.279296875, 22283.525390625, -24415.63671875, -25402.220703125, -25791.20703125, -0.09000000357627869, 0.9140000343322754, 0.23800000548362732, 192.0, 253.0, 48.0, 28.0, 144.0, 7.0, 112.0, 0.0, 0.0, 0.0, 1.6154779152508025E9, 2021-03-11 16:51:55.250
245.0, 160066.484375, 187500.0, -30019.353515625, -13455.4365234375, 24238.07421875, -24545.8125, -25454.880859375, -25887.923828125, -0.09000000357627869, 0.9140000343322754, 0.23800000548362732, 192.0, 0.0, 0.0, 0.0, 0.0, 0.0, 0.0, 0.0, 0.0, 0.0, 1.6154779152508097E9, 2021-03-11 16:51:55.250
246.0, 159972.453125, 187500.0, -23352.654296875, -13587.5576171875, 26303.0625, -24684.169921875, -25555.732421875, -26013.607421875, -0.09000000357627869, 0.9140000343322754, 0.23800000548362732, 192.0, 0.0, 0.0, 0.0, 0.0, 0.0, 0.0, 0.0, 0.0, 0.0, 1.6154779152508154E9, 2021-03-11 16:51:55.250
247.0, 159972.21875, 187500.0, -19196.705078125, -13557.427734375, 25516.169921875, -24643.712890625, -25569.814453125, -25988.953125, -0.09000000357627869, 0.9140000343322754, 0.23800000548362732, 192.0, 0.0, 0.0, 0.0, 0.0, 0.0, 0.0, 0.0, 0.0, 0.0, 1.6154779152508185E9, 2021-03-11 16:51:55.250
248.0, 160074.3125, 187500.0, -24145.8515625, -13394.0361328125, 22664.689453125, -24463.06640625, -25466.458984375, -25838.50390625, -0.09000000357627869, 0.9140000343322754, 0.23800000548362732, 192.0, 0.0, 0.0, 0.0, 0.0, 0.0, 0.0, 0.0, 0.0, 0.0, 1.6154779152508223E9, 2021-03-11 16:51:55.250
249.0, 160129.171875, 187500.0, -30472.556640625, -13344.1474609375, 21965.595703125, -24413.333984375, -25403.2265625, -25789.486328125, -0.09000000357627869, 0.9140000343322754, 0.23800000548362732, 192.0, 0.0, 0.0, 0.0, 0.0, 0.0, 0.0, 0.0, 0.0, 0.0, 1.6154779152508283E9, 2021-03-11 16:51:55.250
250.0, 160064.84375, 187500.0, -29990.1171875, -13467.9091796875, 23946.65234375, -24537.3203125, -25451.974609375, -25888.662109375, -0.09000000357627869, 0.9140000343322754, 0.23800000548362732, 192.0, 0.0, 0.0, 0.0, 0.0, 0.0, 0.0, 0.0, 0.0, 0.0, 1.61547791525084E9, 2021-03-11 16:51:55.250
251.0, 159960.046875, 187500.0, -23290.001953125, -13617.4423828125, 25951.267578125, -24688.73046875, -25562.83984375, -26025.498046875, -0.09000000357627869, 0.9140000343322754, 0.23800000548362732, 192.0, 0.0, 0.0, 0.0, 0.0, 0.0, 0.0, 0.0, 0.0, 0.0, 1.615477915250851E9, 2021-03-11 16:51:55.250
252.0, 159954.828125, 187500.0, -19204.953125, -13585.703125, 25100.873046875, -24650.330078125, -25584.119140625, -26008.0859375, -0.09000000357627869, 0.9140000343322754, 0.23800000548362732, 192.0, 0.0, 0.0, 0.0, 0.0, 0.0, 0.0, 0.0, 0.0, 0.0, 1.6154779152508605E9, 2021-03-11 16:51:55.250
253.0, 160066.9375, 187500.0, -24229.447265625, -13416.4326171875, 22373.46875, -24474.80078125, -25477.791015625, -25861.615234375, -0.09000000357627869, 0.9140000343322754, 0.23800000548362732, 192.0, 0.0, 0.0, 0.0, 0.0, 0.0, 0.0, 0.0, 0.0, 0.0, 1.6154779152508705E9, 2021-03-11 16:51:55.250
254.0, 160124.96875, 187500.0, -30529.59765625, -13367.1474609375, 21819.369140625, -24428.958984375, -25415.296875, -25814.408203125, -0.09400000423192978, 0.9360000491142273, 0.25, 192.0, 253.0, 16.0, 29.0, 64.0, 7.0, 208.0, 0.0, 0.0, 0.0, 1.6154779152508764E9, 2021-03-11 16:51:55.250
255.0, 160062.265625, 187500.0, -29957.505859375, -13483.935546875, 23854.876953125, -24552.80859375, -25460.916015625, -25904.708984375, -0.09400000423192978, 0.9360000491142273, 0.25, 192.0, 0.0, 0.0, 0.0, 0.0, 0.0, 0.0, 0.0, 0.0, 0.0, 1.6154779152508829E9, 2021-03-11 16:51:55.250
0.0, 159958.359375, 187500.0, -23218.029296875, -13616.1015625, 25893.51171875, -24693.759765625, -25560.42578125, -26028.314453125, -0.09400000423192978, 0.9360000491142273, 0.25, 192.0, 0.0, 0.0, 0.0, 0.0, 0.0, 0.0, 0.0, 0.0, 0.0, 1.615477915250889E9, 2021-03-11 16:51:55.250
1.0, 159963.5625, 187500.0, -19190.267578125, -13570.9951171875, 25034.244140625, -24644.40625, -25571.982421875, -25998.453125, -0.09400000423192978, 0.9360000491142273, 0.25, 192.0, 0.0, 0.0, 0.0, 0.0, 0.0, 0.0, 0.0, 0.0, 0.0, 1.6154779152508934E9, 2021-03-11 16:51:55.250
2.0, 160081.3125, 187500.0, -24299.67578125, -13393.947265625, 22299.396484375, -24460.765625, -25455.998046875, -25839.0625, -0.09400000423192978, 0.9360000491142273, 0.25, 192.0, 0.0, 0.0, 0.0, 0.0, 0.0, 0.0, 0.0, 0.0, 0.0, 1.6154779152508993E9, 2021-03-11 16:51:55.250
3.0, 160135.890625, 187500.0, -30555.52734375, -13348.662109375, 21790.46875, -24417.984375, -25400.208984375, -25797.130859375, -0.09400000423192978, 0.9360000491142273, 0.25, 192.0, 0.0, 0.0, 0.0, 0.0, 0.0, 0.0, 0.0, 0.0, 0.0, 1.615477915250903E9, 2021-03-11 16:51:55.250
4.0, 160061.3125, 187500.0, -29909.91796875, -13473.18359375, 23845.064453125, -24539.64453125, -25451.39453125, -25891.947265625, -0.09400000423192978, 0.9360000491142273, 0.25, 192.0, 0.0, 0.0, 0.0, 0.0, 0.0, 0.0, 0.0, 0.0, 0.0, 1.615477915250906E9, 2021-03-11 16:51:55.250
5.0, 159953.765625, 187500.0, -23128.400390625, -13614.4697265625, 25888.794921875, -24685.17578125, -25551.5078125, -26020.4921875, -0.09400000423192978, 0.9360000491142273, 0.25, 192.0, 0.0, 0.0, 0.0, 0.0, 0.0, 0.0, 0.0, 0.0, 0.0, 1.6154779152509103E9, 2021-03-11 16:51:55.250
6.0, 159953.53125, 187500.0, -19173.169921875, -13573.2080078125, 25013.6796875, -24633.38671875, -25569.009765625, -25993.53515625, -0.09400000423192978, 0.9360000491142273, 0.25, 192.0, 0.0, 0.0, 0.0, 0.0, 0.0, 0.0, 0.0, 0.0, 0.0, 1.615477915250948E9, 2021-03-11 16:51:55.250
7.0, 160073.796875, 187500.0, -24347.0390625, -13391.533203125, 22293.71875, -24444.11328125, -25448.689453125, -25830.724609375, -0.09400000423192978, 0.9360000491142273, 0.25, 192.0, 0.0, 0.0, 0.0, 0.0, 0.0, 0.0, 0.0, 0.0, 0.0, 1.615477915250956E9, 2021-03-11 16:51:55.250
8.0, 160124.78125, 187500.0, -30520.03125, -13349.2880859375, 21835.10546875, -24411.390625, -25392.630859375, -25795.23046875, -0.10200000554323196, 0.9300000667572021, 0.25, 192.0, 252.0, 208.0, 29.0, 16.0, 7.0, 208.0, 0.0, 0.0, 0.0, 1.6154779152509875E9, 2021-03-11 16:51:55.250
9.0, 160054.265625, 187500.0, -29784.345703125, -13475.0166015625, 23913.794921875, -24535.888671875, -25438.765625, -25884.97265625, -0.10200000554323196, 0.9300000667572021, 0.25, 192.0, 0.0, 0.0, 0.0, 0.0, 0.0, 0.0, 0.0, 0.0, 0.0, 1.6154779152510028E9, 2021-03-11 16:51:55.251
10.0, 159951.515625, 187500.0, -22979.9609375, -13615.1171875, 25976.2578125, -24675.833984375, -25533.6484375, -26006.611328125, -0.10200000554323196, 0.9300000667572021, 0.25, 192.0, 0.0, 0.0, 0.0, 0.0, 0.0, 0.0, 0.0, 0.0, 0.0, 1.6154779152510116E9, 2021-03-11 16:51:55.251
11.0, 159946.640625, 187500.0, -19109.48828125, -13583.802734375, 25060.9765625, -24636.29296875, -25559.62109375, -25990.71875, -0.10200000554323196, 0.9300000667572021, 0.25, 192.0, 0.0, 0.0, 0.0, 0.0, 0.0, 0.0, 0.0, 0.0, 0.0, 1.6154779152510216E9, 2021-03-11 16:51:55.251
12.0, 160066.734375, 187500.0, -24366.283203125, -13405.837890625, 22315.689453125, -24453.232421875, -25449.314453125, -25837.720703125, -0.10200000554323196, 0.9300000667572021, 0.25, 192.0, 0.0, 0.0, 0.0, 0.0, 0.0, 0.0, 0.0, 0.0, 0.0, 1.615477915251029E9, 2021-03-11 16:51:55.251
13.0, 160111.375, 187500.0, -30506.62109375, -13359.7265625, 21870.421875, -24412.328125, -25391.53515625, -25793.173828125, -0.10200000554323196, 0.9300000667572021, 0.25, 192.0, 0.0, 0.0, 0.0, 0.0, 0.0, 0.0, 0.0, 0.0, 0.0, 1.615477915251037E9, 2021-03-11 16:51:55.251
14.0, 160024.421875, 187500.0, -29700.080078125, -13478.3701171875, 23961.091796875, -24538.080078125, -25441.0234375, -25886.203125, -0.10200000554323196, 0.9300000667572021, 0.25, 192.0, 0.0, 0.0, 0.0, 0.0, 0.0, 0.0, 0.0, 0.0, 0.0, 1.6154779152510448E9, 2021-03-11 16:51:55.251
15.0, 159915.390625, 187500.0, -22845.29296875, -13624.2822265625, 25986.71875, -24689.087890625, -25561.029296875, -26021.654296875, -0.10200000554323196, 0.9300000667572021, 0.25, 192.0, 0.0, 0.0, 0.0, 0.0, 0.0, 0.0, 0.0, 0.0, 0.0, 1.615477915251078E9, 2021-03-11 16:51:55.251
16.0, 159922.59375, 187500.0, -19023.76953125, -13582.640625, 25025.302734375, -24638.953125, -25572.853515625, -25998.02734375, -0.10200000554323196, 0.9300000667572021, 0.25, 192.0, 0.0, 0.0, 0.0, 0.0, 0.0, 0.0, 0.0, 0.0, 0.0, 1.6154779152511053E9, 2021-03-11 16:51:55.251
17.0, 160037.765625, 187500.0, -24375.1796875, -13405.078125, 22274.71875, -24442.32421875, -25447.259765625, -25829.4296875, -0.10200000554323196, 0.9300000667572021, 0.25, 192.0, 0.0, 0.0, 0.0, 0.0, 0.0, 0.0, 0.0, 0.0, 0.0, 1.6154779152512383E9, 2021-03-11 16:51:55.251
18.0, 160093.5, 187500.0, -30493.857421875, -13359.1005859375, 21865.7265625, -24400.03515625, -25390.396484375, -25786.736328125, -0.09200000762939453, 0.906000018119812, 0.2540000081062317, 192.0, 253.0, 32.0, 28.0, 80.0, 7.0, 240.0, 0.0, 0.0, 0.0, 1.6154779152512424E9, 2021-03-11 16:51:55.251
19.0, 160005.203125, 187500.0, -29587.025390625, -13493.546875, 23958.96875, -24539.8671875, -25452.869140625, -25895.076171875, -0.09200000762939453, 0.906000018119812, 0.2540000081062317, 192.0, 0.0, 0.0, 0.0, 0.0, 0.0, 0.0, 0.0, 0.0, 0.0, 1.6154779152512448E9, 2021-03-11 16:51:55.251
20.0, 159894.734375, 187500.0, -22709.05859375, -13636.0615234375, 25961.23828125, -24683.25390625, -25555.240234375, -26024.203125, -0.09200000762939453, 0.906000018119812, 0.2540000081062317, 192.0, 0.0, 0.0, 0.0, 0.0, 0.0, 0.0, 0.0, 0.0, 0.0, 1.6154779152512481E9, 2021-03-11 16:51:55.251
21.0, 159902.75, 187500.0, -18970.23828125, -13591.1787109375, 24964.416015625, -24623.0390625, -25559.15234375, -25987.009765625, -0.09200000762939453, 0.906000018119812, 0.2540000081062317, 192.0, 0.0, 0.0, 0.0, 0.0, 0.0, 0.0, 0.0, 0.0, 0.0, 1.6154779152512512E9, 2021-03-11 16:51:55.251
22.0, 160016.296875, 187500.0, -24410.2265625, -13413.572265625, 22200.400390625, -24437.98828125, -25439.63671875, -25825.853515625, -0.09200000762939453, 0.906000018119812, 0.2540000081062317, 192.0, 0.0, 0.0, 0.0, 0.0, 0.0, 0.0, 0.0, 0.0, 0.0, 1.6154779152512577E9, 2021-03-11 16:51:55.251
23.0, 160055.734375, 187500.0, -30502.015625, -13379.26171875, 21809.513671875, -24412.775390625, -25384.337890625, -25791.38671875, -0.09200000762939453, 0.906000018119812, 0.2540000081062317, 192.0, 0.0, 0.0, 0.0, 0.0, 0.0, 0.0, 0.0, 0.0, 0.0, 1.6154779152512617E9, 2021-03-11 16:51:55.251
24.0, 159978.890625, 187500.0, -29507.900390625, -13504.7666015625, 23923.875, -24540.806640625, -25432.8203125, -25887.54296875, -0.09200000762939453, 0.906000018119812, 0.2540000081062317, 192.0, 0.0, 0.0, 0.0, 0.0, 0.0, 0.0, 0.0, 0.0, 0.0, 1.6154779152512667E9, 2021-03-11 16:51:55.251
25.0, 159878.21875, 187500.0, -22578.658203125, -13641.5146484375, 25918.658203125, -24678.380859375, -25537.8515625, -26015.619140625, -0.09200000762939453, 0.906000018119812, 0.2540000081062317, 192.0, 0.0, 0.0, 0.0, 0.0, 0.0, 0.0, 0.0, 0.0, 0.0, 1.6154779152512724E9, 2021-03-11 16:51:55.251
26.0, 159884.84375, 187500.0, -18878.1484375, -13588.072265625, 24868.86328125, -24618.544921875, -25544.48828125, -25977.84375, -0.09200000762939453, 0.906000018119812, 0.2540000081062317, 192.0, 0.0, 0.0, 0.0, 0.0, 0.0, 0.0, 0.0, 0.0, 0.0, 1.6154779152512755E9, 2021-03-11 16:51:55.251
27.0, 159995.140625, 187500.0, -24375.134765625, -13411.6494140625, 22100.130859375, -24437.67578125, -25429.892578125, -25820.376953125, -0.09200000762939453, 0.906000018119812, 0.2540000081062317, 192.0, 0.0, 0.0, 0.0, 0.0, 0.0, 0.0, 0.0, 0.0, 0.0, 1.61547791525128E9, 2021-03-11 16:51:55.251
28.0, 160053.265625, 187500.0, -30427.2265625, -13365.9853515625, 21765.48046875, -24393.486328125, -25364.625, -25773.392578125, -0.09800000488758087, 0.9140000343322754, 0.2540000081062317, 192.0, 252.0, 240.0, 28.0, 144.0, 7.0, 240.0, 0.0, 0.0, 0.0, 1.6154779152512834E9, 2021-03-11 16:51:55.251
29.0, 159975.453125, 187500.0, -29331.6796875, -13492.8310546875, 23923.98828125, -24528.826171875, -25420.4375, -25876.30078125, -0.09800000488758087, 0.9140000343322754, 0.2540000081062317, 192.0, 0.0, 0.0, 0.0, 0.0, 0.0, 0.0, 0.0, 0.0, 0.0, 1.6154779152513363E9, 2021-03-11 16:51:55.251
30.0, 159870.015625, 187500.0, -22391.328125, -13629.8251953125, 25926.189453125, -24676.861328125, -25534.2734375, -26009.80859375, -0.09800000488758087, 0.9140000343322754, 0.2540000081062317, 192.0, 0.0, 0.0, 0.0, 0.0, 0.0, 0.0, 0.0, 0.0, 0.0, 1.615477915251341E9, 2021-03-11 16:51:55.251
31.0, 159880.75, 187500.0, -18786.55078125, -13574.5048828125, 24915.64453125, -24612.935546875, -25536.5546875, -25969.462890625, -0.09800000488758087, 0.9140000343322754, 0.2540000081062317, 192.0, 0.0, 0.0, 0.0, 0.0, 0.0, 0.0, 0.0, 0.0, 0.0, 1.6154779152513468E9, 2021-03-11 16:51:55.251
32.0, 159998.453125, 187500.0, -24363.466796875, -13399.4453125, 22188.59765625, -24424.130859375, -25420.01171875, -25812.0390625, -0.09800000488758087, 0.9140000343322754, 0.2540000081062317, 192.0, 0.0, 0.0, 0.0, 0.0, 0.0, 0.0, 0.0, 0.0, 0.0, 1.6154779152513509E9, 2021-03-11 16:51:55.251
33.0, 160056.828125, 187500.0, -30401.052734375, -13356.7314453125, 21884.81640625, -24385.841796875, -25363.6640625, -25767.8046875, -0.09800000488758087, 0.9140000343322754, 0.2540000081062317, 192.0, 0.0, 0.0, 0.0, 0.0, 0.0, 0.0, 0.0, 0.0, 0.0, 1.6154779152513535E9, 2021-03-11 16:51:55.251
34.0, 159970.84375, 187500.0, -29237.064453125, -13490.126953125, 24042.40625, -24528.04296875, -25429.490234375, -25876.703125, -0.09800000488758087, 0.9140000343322754, 0.2540000081062317, 192.0, 0.0, 0.0, 0.0, 0.0, 0.0, 0.0, 0.0, 0.0, 0.0, 1.6154779152513573E9, 2021-03-11 16:51:55.251
35.0, 159861.703125, 187500.0, -22267.478515625, -13629.69140625, 26000.509765625, -24669.931640625, -25540.666015625, -26006.1640625, -0.09800000488758087, 0.9140000343322754, 0.2540000081062317, 192.0, 0.0, 0.0, 0.0, 0.0, 0.0, 0.0, 0.0, 0.0, 0.0, 1.6154779152513647E9, 2021-03-11 16:51:55.251
36.0, 159876.390625, 187500.0, -18758.388671875, -13576.8740234375, 24913.431640625, -24605.91796875, -25546.6796875, -25967.0703125, -0.09800000488758087, 0.9140000343322754, 0.2540000081062317, 192.0, 0.0, 0.0, 0.0, 0.0, 0.0, 0.0, 0.0, 0.0, 0.0, 1.6154779152513688E9, 2021-03-11 16:51:55.251
37.0, 159997.0625, 187500.0, -24408.216796875, -13400.697265625, 22175.1875, -24421.08984375, -25431.27734375, -25811.078125, -0.09800000488758087, 0.9140000343322754, 0.2540000081062317, 192.0, 0.0, 0.0, 0.0, 0.0, 0.0, 0.0, 0.0, 0.0, 0.0, 1.615477915251373E9, 2021-03-11 16:51:55.251
38.0, 160049.265625, 187500.0, -30386.390625, -13356.3740234375, 21893.33203125, -24386.109375, -25372.91796875, -25769.34765625, -0.0860000029206276, 0.9180000424385071, 0.2540000081062317, 192.0, 253.0, 80.0, 28.0, 176.0, 7.0, 240.0, 0.0, 0.0, 0.0, 1.6154779152513766E9, 2021-03-11 16:51:55.251
39.0, 159966.921875, 187500.0, -29131.33984375, -13490.5517578125, 24050.23046875, -24526.791015625, -25432.908203125, -25882.9609375, -0.0860000029206276, 0.9180000424385071, 0.2540000081062317, 192.0, 0.0, 0.0, 0.0, 0.0, 0.0, 0.0, 0.0, 0.0, 0.0, 1.615477915251382E9, 2021-03-11 16:51:55.251
40.0, 159868.515625, 187500.0, -22170.828125, -13631.2998046875, 25982.470703125, -24668.546875, -25542.07421875, -26011.751953125, -0.0860000029206276, 0.9180000424385071, 0.2540000081062317, 192.0, 0.0, 0.0, 0.0, 0.0, 0.0, 0.0, 0.0, 0.0, 0.0, 1.6154779152513862E9, 2021-03-11 16:51:55.251
41.0, 159884.078125, 187500.0, -18726.134765625, -13572.3359375, 24878.697265625, -24595.27734375, -25547.08203125, -25967.5859375, -0.0860000029206276, 0.9180000424385071, 0.2540000081062317, 192.0, 0.0, 0.0, 0.0, 0.0, 0.0, 0.0, 0.0, 0.0, 0.0, 1.6154779152513897E9, 2021-03-11 16:51:55.251
42.0, 159998.125, 187500.0, -24451.041015625, -13409.6376953125, 22137.033203125, -24414.33984375, -25433.46875, -25811.345703125, -0.0860000029206276, 0.9180000424385071, 0.2540000081062317, 192.0, 0.0, 0.0, 0.0, 0.0, 0.0, 0.0, 0.0, 0.0, 0.0, 1.6154779152513964E9, 2021-03-11 16:51:55.251
43.0, 160044.828125, 187500.0, -30345.443359375, -13388.4482421875, 21888.59375, -24390.603515625, -25382.37109375, -25783.943359375, -0.0860000029206276, 0.9180000424385071, 0.2540000081062317, 192.0, 0.0, 0.0, 0.0, 0.0, 0.0, 0.0, 0.0, 0.0, 0.0, 1.6154779152513995E9, 2021-03-11 16:51:55.251
44.0, 159965.625, 187500.0, -28978.8125, -13546.005859375, 24003.671875, -24530.859375, -25440.6875, -25894.16015625, -0.0860000029206276, 0.9180000424385071, 0.2540000081062317, 192.0, 0.0, 0.0, 0.0, 0.0, 0.0, 0.0, 0.0, 0.0, 0.0, 1.6154779152514064E9, 2021-03-11 16:51:55.251
45.0, 159860.078125, 187500.0, -21985.8671875, -13690.64453125, 25860.029296875, -24671.810546875, -25545.94140625, -26019.41796875, -0.0860000029206276, 0.9180000424385071, 0.2540000081062317, 192.0, 0.0, 0.0, 0.0, 0.0, 0.0, 0.0, 0.0, 0.0, 0.0, 1.6154779152514095E9, 2021-03-11 16:51:55.251
46.0, 159877.9375, 187500.0, -18609.8828125, -13631.8369140625, 24747.470703125, -24604.62109375, -25554.45703125, -25976.01171875, -0.0860000029206276, 0.9180000424385071, 0.2540000081062317, 192.0, 0.0, 0.0, 0.0, 0.0, 0.0, 0.0, 0.0, 0.0, 0.0, 1.6154779152514143E9, 2021-03-11 16:51:55.251
47.0, 160004.640625, 187500.0, -24382.734375, -13448.1943359375, 22062.802734375, -24411.61328125, -25432.953125, -25814.095703125, -0.0860000029206276, 0.9180000424385071, 0.2540000081062317, 192.0, 0.0, 0.0, 0.0, 0.0, 0.0, 0.0, 0.0, 0.0, 0.0, 1.6154779152514236E9, 2021-03-11 16:51:55.251
48.0, 160054.046875, 187500.0, -30271.279296875, -13406.642578125, 21886.111328125, -24384.8359375, -25372.1796875, -25773.4609375, -0.07400000095367432, 0.9160000681877136, 0.23800000548362732, 192.0, 253.0, 176.0, 28.0, 160.0, 7.0, 112.0, 0.0, 0.0, 0.0, 1.6154779152514343E9, 2021-03-11 16:51:55.251
49.0, 159964.671875, 187500.0, -28810.4140625, -13544.6875, 24100.142578125, -24531.41796875, -25447.548828125, -25894.78515625, -0.07400000095367432, 0.9160000681877136, 0.23800000548362732, 192.0, 0.0, 0.0, 0.0, 0.0, 0.0, 0.0, 0.0, 0.0, 0.0, 1.6154779152514453E9, 2021-03-11 16:51:55.251
50.0, 159869.75, 187500.0, -21807.568359375, -13665.3642578125, 25975.833984375, -24659.3828125, -25543.21484375, -26011.662109375, -0.07400000095367432, 0.9160000681877136, 0.23800000548362732, 192.0, 0.0, 0.0, 0.0, 0.0, 0.0, 0.0, 0.0, 0.0, 0.0, 1.6154779152514598E9, 2021-03-11 16:51:55.251
51.0, 159886.015625, 187500.0, -18599.51171875, -13606.087890625, 24805.2265625, -24587.833984375, -25550.814453125, -25966.53515625, -0.07400000095367432, 0.9160000681877136, 0.23800000548362732, 192.0, 0.0, 0.0, 0.0, 0.0, 0.0, 0.0, 0.0, 0.0, 0.0, 1.615477915251473E9, 2021-03-11 16:51:55.251
52.0, 160004.875, 187500.0, -24448.60546875, -13433.4423828125, 22113.67578125, -24405.734375, -25433.021484375, -25809.603515625, -0.07400000095367432, 0.9160000681877136, 0.23800000548362732, 192.0, 0.0, 0.0, 0.0, 0.0, 0.0, 0.0, 0.0, 0.0, 0.0, 1.6154779152514799E9, 2021-03-11 16:51:55.251
53.0, 160044.875, 187500.0, -30293.228515625, -13405.32421875, 21951.04296875, -24387.943359375, -25385.904296875, -25785.28515625, -0.07400000095367432, 0.9160000681877136, 0.23800000548362732, 192.0, 0.0, 0.0, 0.0, 0.0, 0.0, 0.0, 0.0, 0.0, 0.0, 1.6154779152515025E9, 2021-03-11 16:51:55.251
54.0, 159957.921875, 187500.0, -28755.943359375, -13540.5966796875, 24134.630859375, -24536.3359375, -25458.859375, -25902.654296875, -0.07400000095367432, 0.9160000681877136, 0.23800000548362732, 192.0, 0.0, 0.0, 0.0, 0.0, 0.0, 0.0, 0.0, 0.0, 0.0, 1.615477915251508E9, 2021-03-11 16:51:55.251
55.0, 159868.671875, 187500.0, -21740.513671875, -13663.7099609375, 25980.68359375, -24658.220703125, -25548.69140625, -26012.400390625, -0.07400000095367432, 0.9160000681877136, 0.23800000548362732, 192.0, 0.0, 0.0, 0.0, 0.0, 0.0, 0.0, 0.0, 0.0, 0.0, 1.615477915251516E9, 2021-03-11 16:51:55.251
56.0, 159888.078125, 187500.0, -18596.115234375, -13602.5107421875, 24777.265625, -24587.029296875, -25550.189453125, -25965.037109375, -0.07400000095367432, 0.9160000681877136, 0.23800000548362732, 192.0, 0.0, 0.0, 0.0, 0.0, 0.0, 0.0, 0.0, 0.0, 0.0, 1.6154779152515233E9, 2021-03-11 16:51:55.251
57.0, 160017.515625, 187500.0, -24503.3671875, -13424.501953125, 22102.833984375, -24403.25390625, -25433.2890625, -25807.14453125, -0.06200000271201134, 0.9080000519752502, 0.2240000069141388, 192.0, 254.0, 16.0, 28.0, 96.0, 7.0, 0.0, 0.0, 0.0, 0.0, 1.6154779152515278E9, 2021-03-11 16:51:55.251
58.0, 160058.75, 187500.0, -30304.560546875, -13396.673828125, 21984.974609375, -24383.44921875, -25386.529296875, -25783.1171875, -0.06200000271201134, 0.9080000519752502, 0.2240000069141388, 192.0, 0.0, 0.0, 0.0, 0.0, 0.0, 0.0, 0.0, 0.0, 0.0, 1.6154779152515345E9, 2021-03-11 16:51:55.251
59.0, 159971.078125, 187500.0, -28691.501953125, -13543.0107421875, 24194.734375, -24538.28125, -25472.47265625, -25911.75, -0.06200000271201134, 0.9080000519752502, 0.2240000069141388, 192.0, 0.0, 0.0, 0.0, 0.0, 0.0, 0.0, 0.0, 0.0, 0.0, 1.6154779152515445E9, 2021-03-11 16:51:55.251
60.0, 159888.234375, 187500.0, -21641.517578125, -13656.87109375, 26029.34375, -24657.236328125, -25548.6015625, -26013.00390625, -0.06200000271201134, 0.9080000519752502, 0.2240000069141388, 192.0, 0.0, 0.0, 0.0, 0.0, 0.0, 0.0, 0.0, 0.0, 0.0, 1.615477915251557E9, 2021-03-11 16:51:55.251
61.0, 159910.984375, 187500.0, -18592.158203125, -13589.2119140625, 24811.462890625, -24572.76953125, -25539.169921875, -25956.611328125, -0.06200000271201134, 0.9080000519752502, 0.2240000069141388, 192.0, 0.0, 0.0, 0.0, 0.0, 0.0, 0.0, 0.0, 0.0, 0.0, 1.61547791525157E9, 2021-03-11 16:51:55.251
62.0, 160018.59375, 187500.0, -24543.466796875, -13434.0908203125, 22151.203125, -24407.03125, -25439.212890625, -25814.677734375, -0.06200000271201134, 0.9080000519752502, 0.2240000069141388, 192.0, 0.0, 0.0, 0.0, 0.0, 0.0, 0.0, 0.0, 0.0, 0.0, 1.6154779157223656E9, 2021-03-11 16:51:55.722
63.0, 160056.515625, 187500.0, -30303.197265625, -13415.2255859375, 22057.103515625, -24392.7265625, -25403.740234375, -25797.689453125, -0.06200000271201134, 0.9080000519752502, 0.2240000069141388, 192.0, 0.0, 0.0, 0.0, 0.0, 0.0, 0.0, 0.0, 0.0, 0.0, 1.6154779157223854E9, 2021-03-11 16:51:55.722
64.0, 159976.484375, 187500.0, -28595.501953125, -13548.4423828125, 24311.8125, -24537.162109375, -25464.044921875, -25909.08984375, -0.06200000271201134, 0.9080000519752502, 0.2240000069141388, 192.0, 0.0, 0.0, 0.0, 0.0, 0.0, 0.0, 0.0, 0.0, 0.0, 1.6154779157223964E9, 2021-03-11 16:51:55.722
65.0, 159883.875, 187500.0, -21529.78125, -13675.712890625, 26124.560546875, -24671.33984375, -25565.544921875, -26030.125, -0.06200000271201134, 0.9080000519752502, 0.2240000069141388, 192.0, 0.0, 0.0, 0.0, 0.0, 0.0, 0.0, 0.0, 0.0, 0.0, 1.61547791572241E9, 2021-03-11 16:51:55.722
66.0, 159911.53125, 187500.0, -18568.845703125, -13606.244140625, 24861.6875, -24594.986328125, -25566.23828125, -25982.025390625, -0.06200000271201134, 0.9080000519752502, 0.2240000069141388, 192.0, 0.0, 0.0, 0.0, 0.0, 0.0, 0.0, 0.0, 0.0, 0.0, 1.6154779157224324E9, 2021-03-11 16:51:55.722
67.0, 160038.6875, 187500.0, -24553.435546875, -13419.8974609375, 22244.791015625, -24404.728515625, -25439.79296875, -25817.203125, -0.058000002056360245, 0.9160000681877136, 0.2200000137090683, 192.0, 254.0, 48.0, 28.0, 160.0, 6.0, 224.0, 0.0, 0.0, 0.0, 1.6154779157224462E9, 2021-03-11 16:51:55.722
68.0, 160085.375, 187500.0, -30270.4296875, -13388.1357421875, 22198.25390625, -24386.51171875, -25387.46875, -25789.375, -0.058000002056360245, 0.9160000681877136, 0.2200000137090683, 192.0, 0.0, 0.0, 0.0, 0.0, 0.0, 0.0, 0.0, 0.0, 0.0, 1.61547791572246E9, 2021-03-11 16:51:55.722
69.0, 159997.640625, 187500.0, -28513.494140625, -13527.0966796875, 24456.5625, -24533.408203125, -25458.099609375, -25907.1015625, -0.058000002056360245, 0.9160000681877136, 0.2200000137090683, 192.0, 0.0, 0.0, 0.0, 0.0, 0.0, 0.0, 0.0, 0.0, 0.0, 1.6154779157224712E9, 2021-03-11 16:51:55.722
70.0, 159893.4375, 187500.0, -21411.3828125, -13662.8828125, 26248.970703125, -24674.068359375, -25569.74609375, -26037.232421875, -0.058000002056360245, 0.9160000681877136, 0.2200000137090683, 192.0, 0.0, 0.0, 0.0, 0.0, 0.0, 0.0, 0.0, 0.0, 0.0, 1.6154779157224877E9, 2021-03-11 16:51:55.722
71.0, 159925.46875, 187500.0, -18576.35546875, -13588.630859375, 24928.318359375, -24589.845703125, -25566.37109375, -25983.72265625, -0.058000002056360245, 0.9160000681877136, 0.2200000137090683, 192.0, 0.0, 0.0, 0.0, 0.0, 0.0, 0.0, 0.0, 0.0, 0.0, 1.6154779157224932E9, 2021-03-11 16:51:55.722
72.0, 160041.8125, 187500.0, -24621.4296875, -13417.6396484375, 22306.7265625, -24408.328125, -25448.734375, -25825.49609375, -0.058000002056360245, 0.9160000681877136, 0.2200000137090683, 192.0, 0.0, 0.0, 0.0, 0.0, 0.0, 0.0, 0.0, 0.0, 0.0, 1.615477915722504E9, 2021-03-11 16:51:55.722
73.0, 160080.421875, 187500.0, -30269.423828125, -13399.9150390625, 22279.97265625, -24402.560546875, -25411.40625, -25812.822265625, -0.058000002056360245, 0.9160000681877136, 0.2200000137090683, 192.0, 0.0, 0.0, 0.0, 0.0, 0.0, 0.0, 0.0, 0.0, 0.0, 1.6154779157225134E9, 2021-03-11 16:51:55.722
74.0, 160007.1875, 187500.0, -28415.8828125, -13523.9228515625, 24576.2109375, -24537.20703125, -25461.072265625, -25913.962890625, -0.058000002056360245, 0.9160000681877136, 0.2200000137090683, 192.0, 0.0, 0.0, 0.0, 0.0, 0.0, 0.0, 0.0, 0.0, 0.0, 1.6154779157225163E9, 2021-03-11 16:51:55.722
75.0, 159900.328125, 187500.0, -21295.7578125, -13650.880859375, 26359.2109375, -24666.51171875, -25566.638671875, -26034.103515625, -0.058000002056360245, 0.9160000681877136, 0.2200000137090683, 192.0, 0.0, 0.0, 0.0, 0.0, 0.0, 0.0, 0.0, 0.0, 0.0, 1.6154779157225187E9, 2021-03-11 16:51:55.722
76.0, 159925.515625, 187500.0, -18557.021484375, -13586.529296875, 25006.70703125, -24593.109375, -25563.64453125, -25983.767578125, -0.058000002056360245, 0.9160000681877136, 0.2200000137090683, 192.0, 0.0, 0.0, 0.0, 0.0, 0.0, 0.0, 0.0, 0.0, 0.0, 1.6154779157225332E9, 2021-03-11 16:51:55.722
77.0, 160063.828125, 187500.0, -24662.802734375, -13397.2998046875, 22384.421875, -24395.51953125, -25430.40625, -25807.61328125, -0.0560000017285347, 0.9380000233650208, 0.2160000056028366, 192.0, 254.0, 64.0, 29.0, 80.0, 6.0, 192.0, 0.0, 0.0, 0.0, 1.615477915722536E9, 2021-03-11 16:51:55.722
78.0, 160099.296875, 187500.0, -30262.673828125, -13373.6513671875, 22369.177734375, -24376.611328125, -25391.826171875, -25786.669921875, -0.0560000017285347, 0.9380000233650208, 0.2160000056028366, 192.0, 0.0, 0.0, 0.0, 0.0, 0.0, 0.0, 0.0, 0.0, 0.0, 1.6154779157225385E9, 2021-03-11 16:51:55.722
79.0, 160005.734375, 187500.0, -28304.90625, -13517.4853515625, 24639.646484375, -24531.955078125, -25462.4140625, -25907.66015625, -0.0560000017285347, 0.9380000233650208, 0.2160000056028366, 192.0, 0.0, 0.0, 0.0, 0.0, 0.0, 0.0, 0.0, 0.0, 0.0, 1.615477915722541E9, 2021-03-11 16:51:55.722
80.0, 159913.21875, 187500.0, -21165.9609375, -13639.212890625, 26394.90625, -24656.029296875, -25555.978515625, -26022.771484375, -0.0560000017285347, 0.9380000233650208, 0.2160000056028366, 192.0, 0.0, 0.0, 0.0, 0.0, 0.0, 0.0, 0.0, 0.0, 0.0, 1.6154779157225437E9, 2021-03-11 16:51:55.722
81.0, 159935.625, 187500.0, -18577.697265625, -13570.50390625, 25013.9921875, -24572.076171875, -25546.5, -25967.25, -0.0560000017285347, 0.9380000233650208, 0.2160000056028366, 192.0, 0.0, 0.0, 0.0, 0.0, 0.0, 0.0, 0.0, 0.0, 0.0, 1.615477915722546E9, 2021-03-11 16:51:55.722
82.0, 160051.921875, 187500.0, -24747.08984375, -13403.4912109375, 22389.048828125, -24399.7890625, -25431.8359375, -25816.5546875, -0.0560000017285347, 0.9380000233650208, 0.2160000056028366, 192.0, 0.0, 0.0, 0.0, 0.0, 0.0, 0.0, 0.0, 0.0, 0.0, 1.6154779157225485E9, 2021-03-11 16:51:55.722
83.0, 160089.25, 187500.0, -30289.33984375, -13381.7880859375, 22402.21484375, -24387.25, -25388.541015625, -25795.923828125, -0.0560000017285347, 0.9380000233650208, 0.2160000056028366, 192.0, 0.0, 0.0, 0.0, 0.0, 0.0, 0.0, 0.0, 0.0, 0.0, 1.6154779157225516E9, 2021-03-11 16:51:55.722
84.0, 159997.453125, 187500.0, -28243.328125, -13528.4150390625, 24706.455078125, -24544.31640625, -25465.744140625, -25921.697265625, -0.0560000017285347, 0.9380000233650208, 0.2160000056028366, 192.0, 0.0, 0.0, 0.0, 0.0, 0.0, 0.0, 0.0, 0.0, 0.0, 1.6154779157225544E9, 2021-03-11 16:51:55.722
85.0, 159908.78125, 187500.0, -21058.181640625, -13645.8291015625, 26456.685546875, -24659.76171875, -25564.29296875, -26033.322265625, -0.0560000017285347, 0.9380000233650208, 0.2160000056028366, 192.0, 0.0, 0.0, 0.0, 0.0, 0.0, 0.0, 0.0, 0.0, 0.0, 1.6154779157225568E9, 2021-03-11 16:51:55.722
86.0, 159940.453125, 187500.0, -18543.587890625, -13571.21875, 25014.751953125, -24572.142578125, -25555.59765625, -25972.7265625, -0.0560000017285347, 0.9380000233650208, 0.2160000056028366, 192.0, 0.0, 0.0, 0.0, 0.0, 0.0, 0.0, 0.0, 0.0, 0.0, 1.6154779157225597E9, 2021-03-11 16:51:55.722
87.0, 160053.484375, 187500.0, -24735.35546875, -13413.7958984375, 22393.51953125, -24405.890625, -25447.728515625, -25831.552734375, -0.0560000017285347, 0.956000030040741, 0.21800000965595245, 192.0, 254.0, 64.0, 29.0, 224.0, 6.0, 208.0, 0.0, 0.0, 0.0, 1.615477915722562E9, 2021-03-11 16:51:55.722
88.0, 160087.546875, 187500.0, -30222.150390625, -13399.7587890625, 22413.390625, -24401.98046875, -25401.013671875, -25818.208984375, -0.0560000017285347, 0.956000030040741, 0.21800000965595245, 192.0, 0.0, 0.0, 0.0, 0.0, 0.0, 0.0, 0.0, 0.0, 0.0, 1.6154779157225645E9, 2021-03-11 16:51:55.722
89.0, 160000.203125, 187500.0, -28107.720703125, -13544.083984375, 24745.2578125, -24555.3125, -25473.56640625, -25938.841796875, -0.0560000017285347, 0.956000030040741, 0.21800000965595245, 192.0, 0.0, 0.0, 0.0, 0.0, 0.0, 0.0, 0.0, 0.0, 0.0, 1.615477915722567E9, 2021-03-11 16:51:55.722
90.0, 159907.953125, 187500.0, -20887.591796875, -13665.900390625, 26497.166015625, -24677.263671875, -25571.109375, -26047.91796875, -0.0560000017285347, 0.956000030040741, 0.21800000965595245, 192.0, 0.0, 0.0, 0.0, 0.0, 0.0, 0.0, 0.0, 0.0, 0.0, 1.61547791572257E9, 2021-03-11 16:51:55.722
91.0, 159930.703125, 187500.0, -18496.11328125, -13596.3642578125, 25020.072265625, -24593.578125, -25571.556640625, -25993.71484375, -0.0560000017285347, 0.956000030040741, 0.21800000965595245, 192.0, 0.0, 0.0, 0.0, 0.0, 0.0, 0.0, 0.0, 0.0, 0.0, 1.6154779157225728E9, 2021-03-11 16:51:55.722
92.0, 160054.421875, 187500.0, -24735.154296875, -13427.720703125, 22437.5078125, -24419.75, -25454.478515625, -25844.583984375, -0.0560000017285347, 0.956000030040741, 0.21800000965595245, 192.0, 0.0, 0.0, 0.0, 0.0, 0.0, 0.0, 0.0, 0.0, 0.0, 1.6154779157225757E9, 2021-03-11 16:51:55.722
93.0, 160096.375, 187500.0, -30130.306640625, -13406.84375, 22515.828125, -24410.16015625, -25393.994140625, -25816.173828125, -0.0560000017285347, 0.956000030040741, 0.21800000965595245, 192.0, 0.0, 0.0, 0.0, 0.0, 0.0, 0.0, 0.0, 0.0, 0.0, 1.6154779157225785E9, 2021-03-11 16:51:55.722
94.0, 160003.53125, 187500.0, -27909.302734375, -13548.1962890625, 24838.732421875, -24555.55859375, -25462.30078125, -25930.5703125, -0.0560000017285347, 0.956000030040741, 0.21800000965595245, 192.0, 0.0, 0.0, 0.0, 0.0, 0.0, 0.0, 0.0, 0.0, 0.0, 1.6154779157225814E9, 2021-03-11 16:51:55.722
95.0, 159914.046875, 187500.0, -20698.005859375, -13667.353515625, 26546.71875, -24678.873046875, -25565.0078125, -26047.201171875, -0.0560000017285347, 0.956000030040741, 0.21800000965595245, 192.0, 0.0, 0.0, 0.0, 0.0, 0.0, 0.0, 0.0, 0.0, 0.0, 1.6154779157225845E9, 2021-03-11 16:51:55.722
96.0, 159944.984375, 187500.0, -18400.4921875, -13589.279296875, 25037.8203125, -24587.341796875, -25558.19140625, -25985.712890625, -0.0560000017285347, 0.956000030040741, 0.21800000965595245, 192.0, 0.0, 0.0, 0.0, 0.0, 0.0, 0.0, 0.0, 0.0, 0.0, 1.6154779157225873E9, 2021-03-11 16:51:55.722
97.0, 160066.5625, 187500.0, -24671.4296875, -13413.169921875, 22471.392578125, -24409.064453125, -25437.603515625, -25829.919921875, -0.058000002056360245, 0.9580000638961792, 0.22800001502037048, 192.0, 254.0, 48.0, 29.0, 240.0, 7.0, 32.0, 0.0, 0.0, 0.0, 1.6154779157225904E9, 2021-03-11 16:51:55.722
98.0, 160107.46875, 187500.0, -30011.126953125, -13387.509765625, 22560.6875, -24395.900390625, -25388.33984375, -25802.94140625, -0.058000002056360245, 0.9580000638961792, 0.22800001502037048, 192.0, 0.0, 0.0, 0.0, 0.0, 0.0, 0.0, 0.0, 0.0, 0.0, 1.6154779157225928E9, 2021-03-11 16:51:55.722
99.0, 160009.03125, 187500.0, -27758.876953125, -13535.03125, 24849.88671875, -24555.693359375, -25470.99609375, -25930.705078125, -0.058000002056360245, 0.9580000638961792, 0.22800001502037048, 192.0, 0.0, 0.0, 0.0, 0.0, 0.0, 0.0, 0.0, 0.0, 0.0, 1.6154779157225983E9, 2021-03-11 16:51:55.722
100.0, 159916.84375, 187500.0, -20537.9453125, -13649.62890625, 26504.51953125, -24670.201171875, -25564.583984375, -26037.076171875, -0.058000002056360245, 0.9580000638961792, 0.22800001502037048, 192.0, 0.0, 0.0, 0.0, 0.0, 0.0, 0.0, 0.0, 0.0, 0.0, 1.615477915722601E9, 2021-03-11 16:51:55.722
101.0, 159946.6875, 187500.0, -18380.330078125, -13561.294921875, 24948.279296875, -24566.845703125, -25542.791015625, -25960.56640625, -0.058000002056360245, 0.9580000638961792, 0.22800001502037048, 192.0, 0.0, 0.0, 0.0, 0.0, 0.0, 0.0, 0.0, 0.0, 0.0, 1.615477915722604E9, 2021-03-11 16:51:55.722
102.0, 160061.0625, 187500.0, -24756.3671875, -13397.12109375, 22396.939453125, -24393.888671875, -25432.439453125, -25812.44140625, -0.058000002056360245, 0.9580000638961792, 0.22800001502037048, 192.0, 0.0, 0.0, 0.0, 0.0, 0.0, 0.0, 0.0, 0.0, 0.0, 1.615477915722607E9, 2021-03-11 16:51:55.722
103.0, 160095.125, 187500.0, -30012.111328125, -13382.3466796875, 22537.330078125, -24383.091796875, -25386.9765625, -25790.984375, -0.058000002056360245, 0.9580000638961792, 0.22800001502037048, 192.0, 0.0, 0.0, 0.0, 0.0, 0.0, 0.0, 0.0, 0.0, 0.0, 1.6154779157226095E9, 2021-03-11 16:51:55.722
104.0, 160003.484375, 187500.0, -27677.13671875, -13519.876953125, 24863.609375, -24535.28515625, -25455.73046875, -25909.693359375, -0.058000002056360245, 0.9580000638961792, 0.22800001502037048, 192.0, 0.0, 0.0, 0.0, 0.0, 0.0, 0.0, 0.0, 0.0, 0.0, 1.6154779157226129E9, 2021-03-11 16:51:55.722
105.0, 159908.21875, 187500.0, -20439.462890625, -13636.44140625, 26533.93359375, -24644.96484375, -25545.205078125, -26010.724609375, -0.058000002056360245, 0.9580000638961792, 0.22800001502037048, 192.0, 0.0, 0.0, 0.0, 0.0, 0.0, 0.0, 0.0, 0.0, 0.0, 1.6154779157226157E9, 2021-03-11 16:51:55.722
106.0, 159939.484375, 187500.0, -18380.53125, -13547.615234375, 24901.720703125, -24547.220703125, -25531.390625, -25938.796875, -0.058000002056360245, 0.9580000638961792, 0.22800001502037048, 192.0, 0.0, 0.0, 0.0, 0.0, 0.0, 0.0, 0.0, 0.0, 0.0, 1.6154779157226183E9, 2021-03-11 16:51:55.722
107.0, 160052.125, 187500.0, -24779.03125, -13385.1630859375, 22293.16015625, -24382.35546875, -25421.15234375, -25796.4609375, -0.05000000074505806, 0.9340000152587891, 0.242000013589859, 192.0, 254.0, 112.0, 29.0, 48.0, 7.0, 144.0, 0.0, 0.0, 0.0, 1.6154779157226214E9, 2021-03-11 16:51:55.722
108.0, 160092.953125, 187500.0, -29967.65234375, -13369.1142578125, 22401.833984375, -24369.591796875, -25375.46484375, -25778.98046875, -0.05000000074505806, 0.9340000152587891, 0.242000013589859, 192.0, 0.0, 0.0, 0.0, 0.0, 0.0, 0.0, 0.0, 0.0, 0.0, 1.6154779157226243E9, 2021-03-11 16:51:55.722
109.0, 159999.734375, 187500.0, -27589.96484375, -13500.744140625, 24632.60546875, -24512.330078125, -25444.30859375, -25896.908203125, -0.05000000074505806, 0.9340000152587891, 0.242000013589859, 192.0, 0.0, 0.0, 0.0, 0.0, 0.0, 0.0, 0.0, 0.0, 0.0, 1.615477915722627E9, 2021-03-11 16:51:55.722
110.0, 159888.328125, 187500.0, -20330.654296875, -13637.3349609375, 26224.65234375, -24653.080078125, -25561.365234375, -26029.41015625, -0.05000000074505806, 0.9340000152587891, 0.242000013589859, 192.0, 0.0, 0.0, 0.0, 0.0, 0.0, 0.0, 0.0, 0.0, 0.0, 1.6154779157226298E9, 2021-03-11 16:51:55.722
111.0, 159928.5625, 187500.0, -18357.3984375, -13555.103515625, 24609.380859375, -24555.134765625, -25537.3359375, -25958.734375, -0.05000000074505806, 0.9340000152587891, 0.242000013589859, 192.0, 0.0, 0.0, 0.0, 0.0, 0.0, 0.0, 0.0, 0.0, 0.0, 1.615477915722633E9, 2021-03-11 16:51:55.722
112.0, 160050.6875, 187500.0, -24800.466796875, -13385.1630859375, 22248.34375, -24373.705078125, -25416.32421875, -25799.478515625, -0.05000000074505806, 0.9340000152587891, 0.242000013589859, 192.0, 0.0, 0.0, 0.0, 0.0, 0.0, 0.0, 0.0, 0.0, 0.0, 1.6154779157226355E9, 2021-03-11 16:51:55.722
113.0, 160073.125, 187500.0, -29925.990234375, -13389.07421875, 22559.369140625, -24389.126953125, -25388.607421875, -25800.3046875, -0.05000000074505806, 0.9340000152587891, 0.242000013589859, 192.0, 0.0, 0.0, 0.0, 0.0, 0.0, 0.0, 0.0, 0.0, 0.0, 1.6154779157226384E9, 2021-03-11 16:51:55.722
114.0, 159974.40625, 187500.0, -27465.419921875, -13540.91015625, 24937.99609375, -24548.0703125, -25468.828125, -25928.984375, -0.05000000074505806, 0.9340000152587891, 0.242000013589859, 192.0, 0.0, 0.0, 0.0, 0.0, 0.0, 0.0, 0.0, 0.0, 0.0, 1.615477915722641E9, 2021-03-11 16:51:55.722
115.0, 159890.71875, 187500.0, -20209.552734375, -13650.3662109375, 26597.255859375, -24660.09765625, -25559.353515625, -26033.76953125, -0.05000000074505806, 0.9340000152587891, 0.242000013589859, 192.0, 0.0, 0.0, 0.0, 0.0, 0.0, 0.0, 0.0, 0.0, 0.0, 1.615477915722644E9, 2021-03-11 16:51:55.722
116.0, 159936.03125, 187500.0, -18341.841796875, -13550.6103515625, 24950.267578125, -24545.25390625, -25530.98828125, -25952.185546875, -0.05000000074505806, 0.9340000152587891, 0.242000013589859, 192.0, 0.0, 0.0, 0.0, 0.0, 0.0, 0.0, 0.0, 0.0, 0.0, 1.6154779157226472E9, 2021-03-11 16:51:55.722
117.0, 160051.25, 187500.0, -24850.53515625, -13388.5830078125, 22453.7578125, -24381.03515625, -25424.3046875, -25808.642578125, -0.05000000074505806, 0.9220000505447388, 0.25, 192.0, 254.0, 112.0, 28.0, 208.0, 7.0, 208.0, 0.0, 0.0, 0.0, 1.61547791572265E9, 2021-03-11 16:51:55.722
118.0, 160086.9375, 187500.0, -29896.126953125, -13381.02734375, 22704.41015625, -24386.466796875, -25391.71484375, -25802.8984375, -0.05000000074505806, 0.9220000505447388, 0.25, 192.0, 0.0, 0.0, 0.0, 0.0, 0.0, 0.0, 0.0, 0.0, 0.0, 1.615477915722653E9, 2021-03-11 16:51:55.722
119.0, 160002.03125, 187500.0, -27377.064453125, -13523.9453125, 25036.9921875, -24537.87890625, -25459.552734375, -25923.552734375, -0.05000000074505806, 0.9220000505447388, 0.25, 192.0, 0.0, 0.0, 0.0, 0.0, 0.0, 0.0, 0.0, 0.0, 0.0, 1.615477915722656E9, 2021-03-11 16:51:55.722
120.0, 159912.734375, 187500.0, -20121.77734375, -13635.8154296875, 26674.81640625, -24650.330078125, -25554.30078125, -26030.482421875, -0.05000000074505806, 0.9220000505447388, 0.25, 192.0, 0.0, 0.0, 0.0, 0.0, 0.0, 0.0, 0.0, 0.0, 0.0, 1.615477915722659E9, 2021-03-11 16:51:55.722
121.0, 159957.703125, 187500.0, -18325.837890625, -13539.76953125, 24785.603515625, -24542.416015625, -25525.265625, -25948.853515625, -0.05000000074505806, 0.9220000505447388, 0.25, 192.0, 0.0, 0.0, 0.0, 0.0, 0.0, 0.0, 0.0, 0.0, 0.0, 1.615477915722662E9, 2021-03-11 16:51:55.722
122.0, 160083.28125, 187500.0, -24927.267578125, -13367.1923828125, 21702.89453125, -24361.92578125, -25397.927734375, -25787.98828125, -0.05000000074505806, 0.9220000505447388, 0.25, 192.0, 0.0, 0.0, 0.0, 0.0, 0.0, 0.0, 0.0, 0.0, 0.0, 1.6154779157226665E9, 2021-03-11 16:51:55.722
123.0, 160108.46875, 187500.0, -29958.376953125, -13363.302734375, 21599.47265625, -24371.06640625, -25371.173828125, -25786.982421875, -0.05000000074505806, 0.9220000505447388, 0.25, 192.0, 0.0, 0.0, 0.0, 0.0, 0.0, 0.0, 0.0, 0.0, 0.0, 1.6154779157226694E9, 2021-03-11 16:51:55.722
124.0, 160008.71875, 187500.0, -27388.57421875, -13518.2451171875, 23613.09765625, -24535.0390625, -25455.529296875, -25920.84765625, -0.05000000074505806, 0.9220000505447388, 0.25, 192.0, 0.0, 0.0, 0.0, 0.0, 0.0, 0.0, 0.0, 0.0, 0.0, 1.6154779157226727E9, 2021-03-11 16:51:55.722
125.0, 159923.84375, 187500.0, -20156.623046875, -13625.9130859375, 25012.205078125, -24643.982421875, -25541.046875, -26021.744140625, -0.05000000074505806, 0.9220000505447388, 0.25, 192.0, 0.0, 0.0, 0.0, 0.0, 0.0, 0.0, 0.0, 0.0, 0.0, 1.615477915722675E9, 2021-03-11 16:51:55.722
126.0, 159959.875, 187500.0, -18416.919921875, -13526.1796875, 23410.859375, -24532.87109375, -25517.17578125, -25935.82421875, -0.05000000074505806, 0.9220000505447388, 0.25, 192.0, 0.0, 0.0, 0.0, 0.0, 0.0, 0.0, 0.0, 0.0, 0.0, 1.6154779157226784E9, 2021-03-11 16:51:55.722
127.0, 160067.625, 187500.0, -25039.630859375, -13367.52734375, 21149.666015625, -24364.673828125, -25409.328125, -25788.123046875, -0.06000000238418579, 0.9220000505447388, 0.25200000405311584, 192.0, 254.0, 32.0, 28.0, 208.0, 7.0, 224.0, 0.0, 0.0, 0.0, 1.6154779157226815E9, 2021-03-11 16:51:55.722
128.0, 160095.015625, 187500.0, -29977.95703125, -13368.33203125, 21482.908203125, -24369.79296875, -25367.0390625, -25778.712890625, -0.06000000238418579, 0.9220000505447388, 0.25200000405311584, 192.0, 0.0, 0.0, 0.0, 0.0, 0.0, 0.0, 0.0, 0.0, 0.0, 1.615477915722685E9, 2021-03-11 16:51:55.722
129.0, 160015.125, 187500.0, -27307.662109375, -13507.1142578125, 23638.01953125, -24511.5703125, -25426.359375, -25889.220703125, -0.06000000238418579, 0.9220000505447388, 0.25200000405311584, 192.0, 0.0, 0.0, 0.0, 0.0, 0.0, 0.0, 0.0, 0.0, 0.0, 1.6154779157226877E9, 2021-03-11 16:51:55.722
130.0, 159930.703125, 187500.0, -20092.5859375, -13620.83984375, 25029.4609375, -24625.51953125, -25522.361328125, -25996.419921875, -0.06000000238418579, 0.9220000505447388, 0.25200000405311584, 192.0, 0.0, 0.0, 0.0, 0.0, 0.0, 0.0, 0.0, 0.0, 0.0, 1.6154779157226908E9, 2021-03-11 16:51:55.722
131.0, 159973.75, 187500.0, -18460.775390625, -13525.1513671875, 23402.0078125, -24507.61328125, -25502.244140625, -25912.064453125, -0.06000000238418579, 0.9220000505447388, 0.25200000405311584, 192.0, 0.0, 0.0, 0.0, 0.0, 0.0, 0.0, 0.0, 0.0, 0.0, 1.6154779157226937E9, 2021-03-11 16:51:55.722
132.0, 160086.34375, 187500.0, -25105.166015625, -13361.693359375, 21177.271484375, -24334.232421875, -25383.578125, -25759.37890625, -0.06000000238418579, 0.9220000505447388, 0.25200000405311584, 192.0, 0.0, 0.0, 0.0, 0.0, 0.0, 0.0, 0.0, 0.0, 0.0, 1.6154779157226963E9, 2021-03-11 16:51:55.722
133.0, 160110.484375, 187500.0, -29982.583984375, -13365.314453125, 21537.849609375, -24343.08203125, -25354.611328125, -25758.037109375, -0.06000000238418579, 0.9220000505447388, 0.25200000405311584, 192.0, 0.0, 0.0, 0.0, 0.0, 0.0, 0.0, 0.0, 0.0, 0.0, 1.6154779157226987E9, 2021-03-11 16:51:55.722
134.0, 160025.5, 187500.0, -27235.287109375, -13505.7724609375, 23681.962890625, -24492.68359375, -25428.662109375, -25880.123046875, -0.06000000238418579, 0.9220000505447388, 0.25200000405311584, 192.0, 0.0, 0.0, 0.0, 0.0, 0.0, 0.0, 0.0, 0.0, 0.0, 1.615477915722702E9, 2021-03-11 16:51:55.722
135.0, 159928.140625, 187500.0, -20009.080078125, -13632.57421875, 25021.771484375, -24616.244140625, -25534.453125, -25997.693359375, -0.06000000238418579, 0.9220000505447388, 0.25200000405311584, 192.0, 0.0, 0.0, 0.0, 0.0, 0.0, 0.0, 0.0, 0.0, 0.0, 1.6154779157227051E9, 2021-03-11 16:51:55.722
136.0, 159975.59375, 187500.0, -18468.642578125, -13536.6181640625, 23361.6171875, -24503.45703125, -25509.6875, -25917.16015625, -0.06000000238418579, 0.9220000505447388, 0.25200000405311584, 192.0, 0.0, 0.0, 0.0, 0.0, 0.0, 0.0, 0.0, 0.0, 0.0, 1.6154779157227082E9, 2021-03-11 16:51:55.722
137.0, 160091.890625, 187500.0, -25181.630859375, -13380.7373046875, 21160.150390625, -24334.03125, -25394.28515625, -25768.185546875, -0.07800000160932541, 0.9300000667572021, 0.25200000405311584, 192.0, 253.0, 144.0, 29.0, 16.0, 7.0, 224.0, 0.0, 0.0, 0.0, 1.6154779157227108E9, 2021-03-11 16:51:55.722
138.0, 160117.625, 187500.0, -29987.12109375, -13392.44921875, 21596.880859375, -24352.314453125, -25366.189453125, -25773.951171875, -0.07800000160932541, 0.9300000667572021, 0.25200000405311584, 192.0, 0.0, 0.0, 0.0, 0.0, 0.0, 0.0, 0.0, 0.0, 0.0, 1.6154779157227137E9, 2021-03-11 16:51:55.722
139.0, 160023.46875, 187500.0, -27142.2578125, -13543.9716796875, 23761.646484375, -24508.552734375, -25441.24609375, -25902.294921875, -0.07800000160932541, 0.9300000667572021, 0.25200000405311584, 192.0, 0.0, 0.0, 0.0, 0.0, 0.0, 0.0, 0.0, 0.0, 0.0, 1.6154779157227168E9, 2021-03-11 16:51:55.722
140.0, 159926.921875, 187500.0, -19913.19140625, -13663.419921875, 25106.70703125, -24626.97265625, -25535.83984375, -26011.640625, -0.07800000160932541, 0.9300000667572021, 0.25200000405311584, 192.0, 0.0, 0.0, 0.0, 0.0, 0.0, 0.0, 0.0, 0.0, 0.0, 1.6154779157227197E9, 2021-03-11 16:51:55.722
141.0, 159976.65625, 187500.0, -18445.708984375, -13562.2333984375, 23449.236328125, -24513.068359375, -25507.2734375, -25926.279296875, -0.07800000160932541, 0.9300000667572021, 0.25200000405311584, 192.0, 0.0, 0.0, 0.0, 0.0, 0.0, 0.0, 0.0, 0.0, 0.0, 1.6154779157227223E9, 2021-03-11 16:51:55.722
142.0, 160091.484375, 187500.0, -25226.625, -13399.1103515625, 21239.05078125, -24343.798828125, -25384.49609375, -25775.94140625, -0.07800000160932541, 0.9300000667572021, 0.25200000405311584, 192.0, 0.0, 0.0, 0.0, 0.0, 0.0, 0.0, 0.0, 0.0, 0.0, 1.6154779157227254E9, 2021-03-11 16:51:55.722
143.0, 160104.21875, 187500.0, -29992.330078125, -13414.2646484375, 21665.8359375, -24371.044921875, -25362.947265625, -25784.099609375, -0.07800000160932541, 0.9300000667572021, 0.25200000405311584, 192.0, 0.0, 0.0, 0.0, 0.0, 0.0, 0.0, 0.0, 0.0, 0.0, 1.6154779157227285E9, 2021-03-11 16:51:55.722
144.0, 160008.203125, 187500.0, -27054.416015625, -13568.447265625, 23802.326171875, -24539.173828125, -25453.96484375, -25922.033203125, -0.07800000160932541, 0.9300000667572021, 0.25200000405311584, 192.0, 0.0, 0.0, 0.0, 0.0, 0.0, 0.0, 0.0, 0.0, 0.0, 1.6154779157227314E9, 2021-03-11 16:51:55.722
145.0, 159918.859375, 187500.0, -19810.55078125, -13682.1728515625, 25095.263671875, -24656.119140625, -25554.099609375, -26032.205078125, -0.07800000160932541, 0.9300000667572021, 0.25200000405311584, 192.0, 0.0, 0.0, 0.0, 0.0, 0.0, 0.0, 0.0, 0.0, 0.0, 1.6154779157227345E9, 2021-03-11 16:51:55.722
146.0, 159969.3125, 187500.0, -18427.134765625, -13570.5263671875, 23424.3359375, -24530.166015625, -25516.4609375, -25937.5, -0.07800000160932541, 0.9300000667572021, 0.25200000405311584, 192.0, 0.0, 0.0, 0.0, 0.0, 0.0, 0.0, 0.0, 0.0, 0.0, 1.6154779157227416E9, 2021-03-11 16:51:55.722
147.0, 160091.53125, 187500.0, -25236.83984375, -13397.8359375, 21259.033203125, -24347.59765625, -25395.134765625, -25780.6796875, -0.07600000500679016, 0.9180000424385071, 0.24800001084804535, 192.0, 253.0, 160.0, 28.0, 176.0, 7.0, 192.0, 0.0, 0.0, 0.0, 1.6154779157227447E9, 2021-03-11 16:51:55.722
148.0, 160109.453125, 187500.0, -29937.412109375, -13405.1904296875, 21729.404296875, -24363.869140625, -25361.0703125, -25781.708984375, -0.07600000500679016, 0.9180000424385071, 0.24800001084804535, 192.0, 0.0, 0.0, 0.0, 0.0, 0.0, 0.0, 0.0, 0.0, 0.0, 1.615477915722747E9, 2021-03-11 16:51:55.722
149.0, 160017.984375, 187500.0, -26919.904296875, -13546.0283203125, 23900.00390625, -24516.7109375, -25433.310546875, -25902.251953125, -0.07600000500679016, 0.9180000424385071, 0.24800001084804535, 192.0, 0.0, 0.0, 0.0, 0.0, 0.0, 0.0, 0.0, 0.0, 0.0, 1.61547791572275E9, 2021-03-11 16:51:55.722
150.0, 159928.640625, 187500.0, -19672.23828125, -13647.9521484375, 25215.42578125, -24621.787109375, -25524.908203125, -26001.24609375, -0.07600000500679016, 0.9180000424385071, 0.24800001084804535, 192.0, 0.0, 0.0, 0.0, 0.0, 0.0, 0.0, 0.0, 0.0, 0.0, 1.6154779157227533E9, 2021-03-11 16:51:55.722
151.0, 159975.984375, 187500.0, -18383.392578125, -13541.826171875, 23515.5546875, -24509.021484375, -25499.3828125, -25918.09765625, -0.07600000500679016, 0.9180000424385071, 0.24800001084804535, 192.0, 0.0, 0.0, 0.0, 0.0, 0.0, 0.0, 0.0, 0.0, 0.0, 1.6154779157227564E9, 2021-03-11 16:51:55.722
152.0, 160092.671875, 187500.0, -25234.560546875, -13387.7109375, 21351.50390625, -24343.373046875, -25387.490234375, -25772.029296875, -0.07600000500679016, 0.9180000424385071, 0.24800001084804535, 192.0, 0.0, 0.0, 0.0, 0.0, 0.0, 0.0, 0.0, 0.0, 0.0, 1.6154779157227592E9, 2021-03-11 16:51:55.722
153.0, 160113.109375, 187500.0, -29883.052734375, -13395.220703125, 21852.673828125, -24358.193359375, -25342.763671875, -25768.408203125, -0.07600000500679016, 0.9180000424385071, 0.24800001084804535, 192.0, 0.0, 0.0, 0.0, 0.0, 0.0, 0.0, 0.0, 0.0, 0.0, 1.615477915722762E9, 2021-03-11 16:51:55.722
154.0, 160024.8125, 187500.0, -26790.84375, -13539.2783203125, 24031.96875, -24503.412109375, -25413.84375, -25886.08984375, -0.07600000500679016, 0.9180000424385071, 0.24800001084804535, 192.0, 0.0, 0.0, 0.0, 0.0, 0.0, 0.0, 0.0, 0.0, 0.0, 1.6154779157227652E9, 2021-03-11 16:51:55.722
155.0, 159933.1875, 187500.0, -19569.46484375, -13640.3076171875, 25277.095703125, -24609.515625, -25511.2734375, -25989.244140625, -0.07600000500679016, 0.9180000424385071, 0.24800001084804535, 192.0, 0.0, 0.0, 0.0, 0.0, 0.0, 0.0, 0.0, 0.0, 0.0, 1.6154779157227688E9, 2021-03-11 16:51:55.722
156.0, 159983.984375, 187500.0, -18396.111328125, -13523.1181640625, 23563.9453125, -24483.49609375, -25470.638671875, -25893.130859375, -0.07600000500679016, 0.9180000424385071, 0.24800001084804535, 192.0, 0.0, 0.0, 0.0, 0.0, 0.0, 0.0, 0.0, 0.0, 0.0, 1.6154779157227716E9, 2021-03-11 16:51:55.722
157.0, 160091.5625, 187500.0, -25275.642578125, -13364.755859375, 21425.576171875, -24320.08203125, -25357.71875, -25750.19140625, -0.06800000369548798, 0.9180000424385071, 0.25, 192.0, 253.0, 224.0, 28.0, 176.0, 7.0, 208.0, 0.0, 0.0, 0.0, 1.6154779157227745E9, 2021-03-11 16:51:55.722
158.0, 160108.640625, 187500.0, -29865.283203125, -13374.2548828125, 21907.458984375, -24339.595703125, -25334.337890625, -25757.859375, -0.06800000369548798, 0.9180000424385071, 0.25, 192.0, 0.0, 0.0, 0.0, 0.0, 0.0, 0.0, 0.0, 0.0, 0.0, 1.6154779157227776E9, 2021-03-11 16:51:55.722
159.0, 160018.875, 187500.0, -26691.826171875, -13517.7978515625, 24048.978515625, -24491.609375, -25408.880859375, -25878.580078125, -0.06800000369548798, 0.9180000424385071, 0.25, 192.0, 0.0, 0.0, 0.0, 0.0, 0.0, 0.0, 0.0, 0.0, 0.0, 1.6154779157227805E9, 2021-03-11 16:51:55.722
160.0, 159934.546875, 187500.0, -19450.173828125, -13623.365234375, 25251.0546875, -24598.361328125, -25507.384765625, -25984.796875, -0.06800000369548798, 0.9180000424385071, 0.25, 192.0, 0.0, 0.0, 0.0, 0.0, 0.0, 0.0, 0.0, 0.0, 0.0, 1.615477915722783E9, 2021-03-11 16:51:55.722
161.0, 159980.703125, 187500.0, -18380.419921875, -13510.220703125, 23502.1875, -24474.310546875, -25479.712890625, -25897.87109375, -0.06800000369548798, 0.9180000424385071, 0.25, 192.0, 0.0, 0.0, 0.0, 0.0, 0.0, 0.0, 0.0, 0.0, 0.0, 1.6154779157227857E9, 2021-03-11 16:51:55.722
162.0, 160100.265625, 187500.0, -25349.603515625, -13347.3662109375, 21400.07421875, -24306.26953125, -25361.71875, -25750.638671875, -0.06800000369548798, 0.9180000424385071, 0.25, 192.0, 0.0, 0.0, 0.0, 0.0, 0.0, 0.0, 0.0, 0.0, 0.0, 1.6154779157227888E9, 2021-03-11 16:51:55.722
163.0, 160110.59375, 187500.0, -29872.099609375, -13373.205078125, 21937.6328125, -24333.427734375, -25342.787109375, -25761.970703125, -0.06800000369548798, 0.9180000424385071, 0.25, 192.0, 0.0, 0.0, 0.0, 0.0, 0.0, 0.0, 0.0, 0.0, 0.0, 1.6154779157227917E9, 2021-03-11 16:51:55.722
164.0, 160022.453125, 187500.0, -26572.35546875, -13517.0380859375, 24095.3359375, -24483.765625, -25423.65625, -25887.275390625, -0.06800000369548798, 0.9180000424385071, 0.25, 192.0, 0.0, 0.0, 0.0, 0.0, 0.0, 0.0, 0.0, 0.0, 0.0, 1.6154779157227943E9, 2021-03-11 16:51:55.722
165.0, 159938.703125, 187500.0, -19296.21484375, -13615.810546875, 25273.921875, -24587.767578125, -25515.052734375, -25985.533203125, -0.06800000369548798, 0.9180000424385071, 0.25, 192.0, 0.0, 0.0, 0.0, 0.0, 0.0, 0.0, 0.0, 0.0, 0.0, 1.6154779157227974E9, 2021-03-11 16:51:55.722
166.0, 159984.640625, 187500.0, -18365.421875, -13507.5830078125, 23496.30859375, -24466.419921875, -25470.662109375, -25889.33203125, -0.06400000303983688, 0.9240000247955322, 0.25200000405311584, 192.0, 254.0, 0.0, 28.0, 224.0, 7.0, 224.0, 0.0, 0.0, 0.0, 1.6154779157228007E9, 2021-03-11 16:51:55.722
167.0, 160101.65625, 187500.0, -25386.91015625, -13344.9970703125, 21427.41015625, -24296.12109375, -25345.849609375, -25738.927734375, -0.06400000303983688, 0.9240000247955322, 0.25200000405311584, 192.0, 0.0, 0.0, 0.0, 0.0, 0.0, 0.0, 0.0, 0.0, 0.0, 1.6154779157228036E9, 2021-03-11 16:51:55.722
168.0, 160117.140625, 187500.0, -29877.6875, -13362.8330078125, 22015.796875, -24321.021484375, -25319.96484375, -25744.201171875, -0.06400000303983688, 0.9240000247955322, 0.25200000405311584, 192.0, 0.0, 0.0, 0.0, 0.0, 0.0, 0.0, 0.0, 0.0, 0.0, 1.6154779157228065E9, 2021-03-11 16:51:55.722
169.0, 160013.234375, 187500.0, -26496.494140625, -13523.900390625, 24177.74609375, -24493.689453125, -25421.732421875, -25888.6171875, -0.06400000303983688, 0.9240000247955322, 0.25200000405311584, 192.0, 0.0, 0.0, 0.0, 0.0, 0.0, 0.0, 0.0, 0.0, 0.0, 1.6154779157228112E9, 2021-03-11 16:51:55.722
170.0, 159929.9375, 187500.0, -19199.142578125, -13629.51171875, 25339.5234375, -24604.21875, -25510.73828125, -25992.306640625, -0.06400000303983688, 0.9240000247955322, 0.25200000405311584, 192.0, 0.0, 0.0, 0.0, 0.0, 0.0, 0.0, 0.0, 0.0, 0.0, 1.6154779157228143E9, 2021-03-11 16:51:55.722
171.0, 159982.84375, 187500.0, -18349.640625, -13510.712890625, 23563.990234375, -24470.822265625, -25460.8046875, -25886.11328125, -0.06400000303983688, 0.9240000247955322, 0.25200000405311584, 192.0, 0.0, 0.0, 0.0, 0.0, 0.0, 0.0, 0.0, 0.0, 0.0, 1.615477915722817E9, 2021-03-11 16:51:55.722
172.0, 160101.828125, 187500.0, -25382.88671875, -13346.6953125, 21520.794921875, -24297.150390625, -25341.021484375, -25733.427734375, -0.06400000303983688, 0.9240000247955322, 0.25200000405311584, 192.0, 0.0, 0.0, 0.0, 0.0, 0.0, 0.0, 0.0, 0.0, 0.0, 1.6154779157228196E9, 2021-03-11 16:51:55.722
173.0, 160108.09375, 187500.0, -29821.853515625, -13367.37109375, 22153.23828125, -24329.203125, -25327.095703125, -25752.427734375, -0.06400000303983688, 0.9240000247955322, 0.25200000405311584, 192.0, 0.0, 0.0, 0.0, 0.0, 0.0, 0.0, 0.0, 0.0, 0.0, 1.6154779157228224E9, 2021-03-11 16:51:55.722
174.0, 160008.515625, 187500.0, -26379.349609375, -13523.7880859375, 24445.38671875, -24497.98046875, -25421.912109375, -25893.04296875, -0.06400000303983688, 0.9240000247955322, 0.25200000405311584, 192.0, 0.0, 0.0, 0.0, 0.0, 0.0, 0.0, 0.0, 0.0, 0.0, 1.6154779157228253E9, 2021-03-11 16:51:55.722
175.0, 159923.546875, 187500.0, -19052.603515625, -13622.76171875, 25662.484375, -24599.79296875, -25506.982421875, -25987.74609375, -0.06400000303983688, 0.9240000247955322, 0.25200000405311584, 192.0, 0.0, 0.0, 0.0, 0.0, 0.0, 0.0, 0.0, 0.0, 0.0, 1.6154779157228284E9, 2021-03-11 16:51:55.722
176.0, 159974.84375, 187500.0, -18334.330078125, -13509.572265625, 23838.828125, -24467.6484375, -25467.822265625, -25887.587890625, -0.06400000303983688, 0.9240000247955322, 0.24800001084804535, 192.0, 254.0, 0.0, 28.0, 224.0, 7.0, 192.0, 0.0, 0.0, 0.0, 1.6154779157228305E9, 2021-03-11 16:51:55.722
177.0, 160085.21875, 187500.0, -25412.234375, -13355.591796875, 21799.744140625, -24306.828125, -25356.869140625, -25744.201171875, -0.06400000303983688, 0.9240000247955322, 0.24800001084804535, 192.0, 0.0, 0.0, 0.0, 0.0, 0.0, 0.0, 0.0, 0.0, 0.0, 1.6154779157228332E9, 2021-03-11 16:51:55.722
178.0, 160100.71875, 187500.0, -29778.333984375, -13373.2490234375, 22422.509765625, -24334.1640625, -25332.103515625, -25756.427734375, -0.06400000303983688, 0.9240000247955322, 0.24800001084804535, 192.0, 0.0, 0.0, 0.0, 0.0, 0.0, 0.0, 0.0, 0.0, 0.0, 1.6154779157228365E9, 2021-03-11 16:51:55.722
179.0, 160011.34375, 187500.0, -26276.306640625, -13520.48046875, 24635.265625, -24489.017578125, -25410.982421875, -25881.21875, -0.06400000303983688, 0.9240000247955322, 0.24800001084804535, 192.0, 0.0, 0.0, 0.0, 0.0, 0.0, 0.0, 0.0, 0.0, 0.0, 1.615477915722839E9, 2021-03-11 16:51:55.722
180.0, 159931.546875, 187500.0, -18955.0390625, -13614.693359375, 25789.486328125, -24585.107421875, -25502.400390625, -25978.11328125, -0.06400000303983688, 0.9240000247955322, 0.24800001084804535, 192.0, 0.0, 0.0, 0.0, 0.0, 0.0, 0.0, 0.0, 0.0, 0.0, 1.615477915722842E9, 2021-03-11 16:51:55.722
181.0, 159975.140625, 187500.0, -18340.365234375, -13504.23046875, 23924.568359375, -24460.607421875, -25469.0078125, -25884.5703125, -0.06400000303983688, 0.9240000247955322, 0.24800001084804535, 192.0, 0.0, 0.0, 0.0, 0.0, 0.0, 0.0, 0.0, 0.0, 0.0, 1.6154779157228446E9, 2021-03-11 16:51:55.722
182.0, 160085.171875, 187500.0, -25444.173828125, -13345.533203125, 21896.013671875, -24297.775390625, -25352.689453125, -25741.251953125, -0.06400000303983688, 0.9240000247955322, 0.24800001084804535, 192.0, 0.0, 0.0, 0.0, 0.0, 0.0, 0.0, 0.0, 0.0, 0.0, 1.615477916082474E9, 2021-03-11 16:51:56.082
183.0, 160097.921875, 187500.0, -29769.19140625, -13361.828125, 22544.37109375, -24324.888671875, -25327.990234375, -25752.091796875, -0.06400000303983688, 0.9240000247955322, 0.24800001084804535, 192.0, 0.0, 0.0, 0.0, 0.0, 0.0, 0.0, 0.0, 0.0, 0.0, 1.6154779160825047E9, 2021-03-11 16:51:56.082
184.0, 159997.9375, 187500.0, -26185.15625, -13518.71484375, 24763.072265625, -24487.921875, -25413.73046875, -25885.77734375, -0.06400000303983688, 0.9240000247955322, 0.24800001084804535, 192.0, 0.0, 0.0, 0.0, 0.0, 0.0, 0.0, 0.0, 0.0, 0.0, 1.6154779160825324E9, 2021-03-11 16:51:56.082
185.0, 159920.3125, 187500.0, -18865.966796875, -13614.9833984375, 25886.984375, -24583.275390625, -25508.01171875, -25982.046875, -0.06400000303983688, 0.9240000247955322, 0.24800001084804535, 192.0, 0.0, 0.0, 0.0, 0.0, 0.0, 0.0, 0.0, 0.0, 0.0, 1.6154779160825405E9, 2021-03-11 16:51:56.082
186.0, 159983.0, 187500.0, -18361.220703125, -13494.6640625, 23984.740234375, -24448.716796875, -25462.81640625, -25879.33984375, -0.05000000074505806, 0.9200000166893005, 0.25200000405311584, 192.0, 254.0, 112.0, 28.0, 192.0, 7.0, 224.0, 0.0, 0.0, 0.0, 1.615477916082555E9, 2021-03-11 16:51:56.082
187.0, 160096.515625, 187500.0, -25510.87109375, -13337.8662109375, 21939.376953125, -24285.52734375, -25344.8203125, -25732.19921875, -0.05000000074505806, 0.9200000166893005, 0.25200000405311584, 192.0, 0.0, 0.0, 0.0, 0.0, 0.0, 0.0, 0.0, 0.0, 0.0, 1.6154779160825667E9, 2021-03-11 16:51:56.082
188.0, 160108.46875, 187500.0, -29766.509765625, -13356.7314453125, 22594.55078125, -24316.841796875, -25324.435546875, -25745.3203125, -0.05000000074505806, 0.9200000166893005, 0.25200000405311584, 192.0, 0.0, 0.0, 0.0, 0.0, 0.0, 0.0, 0.0, 0.0, 0.0, 1.6154779160825775E9, 2021-03-11 16:51:56.082
189.0, 160008.734375, 187500.0, -26116.8046875, -13510.66796875, 24779.8359375, -24482.6015625, -25418.24609375, -25886.248046875, -0.05000000074505806, 0.9200000166893005, 0.25200000405311584, 192.0, 0.0, 0.0, 0.0, 0.0, 0.0, 0.0, 0.0, 0.0, 0.0, 1.6154779160826347E9, 2021-03-11 16:51:56.082
190.0, 159931.6875, 187500.0, -18803.470703125, -13609.73046875, 25850.171875, -24580.861328125, -25509.0625, -25981.30859375, -0.05000000074505806, 0.9200000166893005, 0.25200000405311584, 192.0, 0.0, 0.0, 0.0, 0.0, 0.0, 0.0, 0.0, 0.0, 0.0, 1.615477916082638E9, 2021-03-11 16:51:56.082
191.0, 159989.0, 187500.0, -18402.279296875, -13489.5234375, 23895.400390625, -24445.365234375, -25468.314453125, -25878.625, -0.05000000074505806, 0.9200000166893005, 0.25200000405311584, 192.0, 0.0, 0.0, 0.0, 0.0, 0.0, 0.0, 0.0, 0.0, 0.0, 1.6154779160826411E9, 2021-03-11 16:51:56.082
192.0, 160109.078125, 187500.0, -25569.568359375, -13328.6572265625, 21851.51171875, -24282.15234375, -25345.177734375, -25732.2890625, -0.05000000074505806, 0.9200000166893005, 0.25200000405311584, 192.0, 0.0, 0.0, 0.0, 0.0, 0.0, 0.0, 0.0, 0.0, 0.0, 1.615477916082656E9, 2021-03-11 16:51:56.082
193.0, 160114.21875, 187500.0, -29742.16796875, -13365.2919921875, 22515.134765625, -24323.703125, -25339.859375, -25758.953125, -0.05000000074505806, 0.9200000166893005, 0.25200000405311584, 192.0, 0.0, 0.0, 0.0, 0.0, 0.0, 0.0, 0.0, 0.0, 0.0, 1.6154779160826592E9, 2021-03-11 16:51:56.082
194.0, 160021.359375, 187500.0, -26045.5703125, -13521.84375, 24749.818359375, -24488.7265625, -25427.923828125, -25893.400390625, -0.05000000074505806, 0.9200000166893005, 0.25200000405311584, 192.0, 0.0, 0.0, 0.0, 0.0, 0.0, 0.0, 0.0, 0.0, 0.0, 1.615477916082662E9, 2021-03-11 16:51:56.082
195.0, 159952.75, 187500.0, -18756.734375, -13618.73828125, 25860.921875, -24581.552734375, -25511.029296875, -25981.578125, -0.05000000074505806, 0.9200000166893005, 0.25200000405311584, 192.0, 0.0, 0.0, 0.0, 0.0, 0.0, 0.0, 0.0, 0.0, 0.0, 1.615477916082665E9, 2021-03-11 16:51:56.082
196.0, 160011.734375, 187500.0, -18450.3359375, -13496.4970703125, 23895.556640625, -24446.37109375, -25471.869140625, -25880.81640625, -0.04400000348687172, 0.9120000600814819, 0.2460000067949295, 192.0, 254.0, 160.0, 28.0, 128.0, 7.0, 176.0, 0.0, 0.0, 0.0, 1.6154779160826683E9, 2021-03-11 16:51:56.082
197.0, 160123.84375, 187500.0, -25651.732421875, -13341.6220703125, 21852.451171875, -24291.361328125, -25355.638671875, -25742.4140625, -0.04400000348687172, 0.9120000600814819, 0.2460000067949295, 192.0, 0.0, 0.0, 0.0, 0.0, 0.0, 0.0, 0.0, 0.0, 0.0, 1.6154779160826712E9, 2021-03-11 16:51:56.082
198.0, 160133.84375, 187500.0, -29763.8046875, -13369.2041015625, 22584.4921875, -24318.02734375, -25332.818359375, -25748.0234375, -0.04400000348687172, 0.9120000600814819, 0.2460000067949295, 192.0, 0.0, 0.0, 0.0, 0.0, 0.0, 0.0, 0.0, 0.0, 0.0, 1.6154779160826745E9, 2021-03-11 16:51:56.082
199.0, 160026.28125, 187500.0, -25980.861328125, -13525.576171875, 25002.28125, -24489.30859375, -25420.123046875, -25887.9453125, -0.04400000348687172, 0.9120000600814819, 0.2460000067949295, 192.0, 0.0, 0.0, 0.0, 0.0, 0.0, 0.0, 0.0, 0.0, 0.0, 1.6154779160826771E9, 2021-03-11 16:51:56.082
200.0, 159949.4375, 187500.0, -18676.87109375, -13615.609375, 26280.912109375, -24582.515625, -25504.0546875, -25978.560546875, -0.04400000348687172, 0.9120000600814819, 0.2460000067949295, 192.0, 0.0, 0.0, 0.0, 0.0, 0.0, 0.0, 0.0, 0.0, 0.0, 1.6154779160826805E9, 2021-03-11 16:51:56.082
201.0, 160017.40625, 187500.0, -18496.873046875, -13483.1533203125, 24233.26953125, -24435.59765625, -25452.802734375, -25866.80078125, -0.04400000348687172, 0.9120000600814819, 0.2460000067949295, 192.0, 0.0, 0.0, 0.0, 0.0, 0.0, 0.0, 0.0, 0.0, 0.0, 1.615477916082683E9, 2021-03-11 16:51:56.082
202.0, 160122.5, 187500.0, -25758.060546875, -13338.1572265625, 22016.064453125, -24283.73828125, -25344.84375, -25729.806640625, -0.04400000348687172, 0.9120000600814819, 0.2460000067949295, 192.0, 0.0, 0.0, 0.0, 0.0, 0.0, 0.0, 0.0, 0.0, 0.0, 1.615477916082686E9, 2021-03-11 16:51:56.082
203.0, 160135.453125, 187500.0, -29789.755859375, -13356.3291015625, 22740.5078125, -24311.56640625, -25312.56640625, -25736.4453125, -0.04400000348687172, 0.9120000600814819, 0.2460000067949295, 192.0, 0.0, 0.0, 0.0, 0.0, 0.0, 0.0, 0.0, 0.0, 0.0, 1.615477916082689E9, 2021-03-11 16:51:56.082
204.0, 160031.640625, 187500.0, -25940.583984375, -13512.791015625, 25158.630859375, -24477.931640625, -25404.478515625, -25873.57421875, -0.04400000348687172, 0.9120000600814819, 0.2460000067949295, 192.0, 0.0, 0.0, 0.0, 0.0, 0.0, 0.0, 0.0, 0.0, 0.0, 1.615477916082692E9, 2021-03-11 16:51:56.082
205.0, 159960.921875, 187500.0, -18695.177734375, -13607.9423828125, 26371.392578125, -24568.41015625, -25495.47265625, -25962.6015625, -0.04400000348687172, 0.9120000600814819, 0.2460000067949295, 192.0, 0.0, 0.0, 0.0, 0.0, 0.0, 0.0, 0.0, 0.0, 0.0, 1.6154779160826948E9, 2021-03-11 16:51:56.082
206.0, 160029.1875, 187500.0, -18583.373046875, -13479.017578125, 24282.80078125, -24421.671875, -25434.00390625, -25845.8125, -0.05000000074505806, 0.9260000586509705, 0.23600001633167267, 192.0, 254.0, 112.0, 28.0, 240.0, 7.0, 96.0, 0.0, 0.0, 0.0, 1.6154779160826979E9, 2021-03-11 16:51:56.082
207.0, 160140.15625, 187500.0, -25845.56640625, -13335.810546875, 22058.712890625, -24274.216796875, -25327.251953125, -25715.2109375, -0.05000000074505806, 0.9260000586509705, 0.23600001633167267, 192.0, 0.0, 0.0, 0.0, 0.0, 0.0, 0.0, 0.0, 0.0, 0.0, 1.6154779160827005E9, 2021-03-11 16:51:56.082
208.0, 160138.640625, 187500.0, -29781.150390625, -13383.888671875, 22791.380859375, -24322.4296875, -25319.138671875, -25745.765625, -0.05000000074505806, 0.9260000586509705, 0.23600001633167267, 192.0, 0.0, 0.0, 0.0, 0.0, 0.0, 0.0, 0.0, 0.0, 0.0, 1.6154779160827034E9, 2021-03-11 16:51:56.082
209.0, 160039.015625, 187500.0, -25874.2890625, -13550.38671875, 25226.53515625, -24484.591796875, -25416.2578125, -25883.296875, -0.05000000074505806, 0.9260000586509705, 0.23600001633167267, 192.0, 0.0, 0.0, 0.0, 0.0, 0.0, 0.0, 0.0, 0.0, 0.0, 1.6154779160827065E9, 2021-03-11 16:51:56.082
210.0, 159968.03125, 187500.0, -18645.556640625, -13643.99609375, 26438.939453125, -24570.646484375, -25500.74609375, -25967.294921875, -0.05000000074505806, 0.9260000586509705, 0.23600001633167267, 192.0, 0.0, 0.0, 0.0, 0.0, 0.0, 0.0, 0.0, 0.0, 0.0, 1.6154779160827093E9, 2021-03-11 16:51:56.082
211.0, 160033.40625, 187500.0, -18634.3359375, -13526.0908203125, 24294.333984375, -24419.771484375, -25448.376953125, -25850.439453125, -0.05000000074505806, 0.9260000586509705, 0.23600001633167267, 192.0, 0.0, 0.0, 0.0, 0.0, 0.0, 0.0, 0.0, 0.0, 0.0, 1.615477916082712E9, 2021-03-11 16:51:56.082
212.0, 160142.984375, 187500.0, -25917.78515625, -13390.3935546875, 22063.31640625, -24280.005859375, -25341.646484375, -25724.64453125, -0.05000000074505806, 0.9260000586509705, 0.23600001633167267, 192.0, 0.0, 0.0, 0.0, 0.0, 0.0, 0.0, 0.0, 0.0, 0.0, 1.6154779160827153E9, 2021-03-11 16:51:56.082
213.0, 160158.203125, 187500.0, -29785.419921875, -13414.6005859375, 22840.93359375, -24306.939453125, -25320.234375, -25735.640625, -0.05000000074505806, 0.9260000586509705, 0.23600001633167267, 192.0, 0.0, 0.0, 0.0, 0.0, 0.0, 0.0, 0.0, 0.0, 0.0, 1.615477916082718E9, 2021-03-11 16:51:56.082
214.0, 160056.609375, 187500.0, -25815.794921875, -13576.650390625, 25289.92578125, -24476.880859375, -25422.515625, -25880.212890625, -0.05000000074505806, 0.9260000586509705, 0.23600001633167267, 192.0, 0.0, 0.0, 0.0, 0.0, 0.0, 0.0, 0.0, 0.0, 0.0, 1.6154779160827208E9, 2021-03-11 16:51:56.082
215.0, 159988.28125, 187500.0, -18616.298828125, -13667.0185546875, 26487.912109375, -24559.849609375, -25496.208984375, -25957.884765625, -0.05000000074505806, 0.9260000586509705, 0.23600001633167267, 192.0, 0.0, 0.0, 0.0, 0.0, 0.0, 0.0, 0.0, 0.0, 0.0, 1.6154779160827267E9, 2021-03-11 16:51:56.082
216.0, 160052.296875, 187500.0, -18677.609375, -13561.048828125, 24339.439453125, -24413.625, -25434.02734375, -25835.1953125, -0.06000000238418579, 0.9480000734329224, 0.23000000417232513, 192.0, 254.0, 32.0, 29.0, 160.0, 7.0, 48.0, 0.0, 0.0, 0.0, 1.6154779160827296E9, 2021-03-11 16:51:56.082
217.0, 160159.9375, 187500.0, -25985.064453125, -13428.2568359375, 22120.08984375, -24268.427734375, -25319.36328125, -25701.533203125, -0.06000000238418579, 0.9480000734329224, 0.23000000417232513, 192.0, 0.0, 0.0, 0.0, 0.0, 0.0, 0.0, 0.0, 0.0, 0.0, 1.615477916082733E9, 2021-03-11 16:51:56.082
218.0, 160156.28125, 187500.0, -29775.138671875, -13472.625, 22903.09375, -24316.640625, -25317.91015625, -25735.75390625, -0.06000000238418579, 0.9480000734329224, 0.23000000417232513, 192.0, 0.0, 0.0, 0.0, 0.0, 0.0, 0.0, 0.0, 0.0, 0.0, 1.6154779160827355E9, 2021-03-11 16:51:56.082
219.0, 160059.34375, 187500.0, -25716.955078125, -13625.623046875, 25342.98828125, -24473.953125, -25408.76953125, -25870.01953125, -0.06000000238418579, 0.9480000734329224, 0.23000000417232513, 192.0, 0.0, 0.0, 0.0, 0.0, 0.0, 0.0, 0.0, 0.0, 0.0, 1.6154779160827384E9, 2021-03-11 16:51:56.082
220.0, 159987.4375, 187500.0, -18526.466796875, -13709.7998046875, 26501.880859375, -24557.748046875, -25487.134765625, -25954.5546875, -0.06000000238418579, 0.9480000734329224, 0.23000000417232513, 192.0, 0.0, 0.0, 0.0, 0.0, 0.0, 0.0, 0.0, 0.0, 0.0, 1.6154779160827413E9, 2021-03-11 16:51:56.082
221.0, 160053.84375, 187500.0, -18698.84375, -13591.5146484375, 24305.28515625, -24410.40625, -25433.958984375, -25838.146484375, -0.06000000238418579, 0.9480000734329224, 0.23000000417232513, 192.0, 0.0, 0.0, 0.0, 0.0, 0.0, 0.0, 0.0, 0.0, 0.0, 1.6154779160827444E9, 2021-03-11 16:51:56.082
222.0, 160170.0, 187500.0, -26009.40625, -13505.236328125, 22134.39453125, -24253.7421875, -25320.48046875, -25698.0, -0.06000000238418579, 0.9480000734329224, 0.23000000417232513, 192.0, 0.0, 0.0, 0.0, 0.0, 0.0, 0.0, 0.0, 0.0, 0.0, 1.6154779160827475E9, 2021-03-11 16:51:56.082
223.0, 160166.65625, 187500.0, -29746.572265625, -13572.58203125, 22964.271484375, -24305.330078125, -25312.880859375, -25727.505859375, -0.06000000238418579, 0.9480000734329224, 0.23000000417232513, 192.0, 0.0, 0.0, 0.0, 0.0, 0.0, 0.0, 0.0, 0.0, 0.0, 1.61547791608275E9, 2021-03-11 16:51:56.082
224.0, 160054.421875, 187500.0, -25633.181640625, -13734.453125, 25387.423828125, -24471.337890625, -25411.16015625, -25867.60546875, -0.06000000238418579, 0.9480000734329224, 0.23000000417232513, 192.0, 0.0, 0.0, 0.0, 0.0, 0.0, 0.0, 0.0, 0.0, 0.0, 1.615477916082753E9, 2021-03-11 16:51:56.082
225.0, 159991.6875, 187500.0, -18497.119140625, -13810.9638671875, 26502.015625, -24546.169921875, -25486.375, -25943.04296875, -0.06000000238418579, 0.9480000734329224, 0.23000000417232513, 192.0, 0.0, 0.0, 0.0, 0.0, 0.0, 0.0, 0.0, 0.0, 0.0, 1.615477916082756E9, 2021-03-11 16:51:56.082
226.0, 160055.0, 187500.0, -18760.869140625, -13681.099609375, 24321.6484375, -24396.056640625, -25438.005859375, -25826.568359375, -0.06200000271201134, 0.956000030040741, 0.23600001633167267, 192.0, 254.0, 16.0, 29.0, 224.0, 7.0, 96.0, 0.0, 0.0, 0.0, 1.615477916082759E9, 2021-03-11 16:51:56.082
227.0, 160158.875, 187500.0, -26065.41796875, -13546.0732421875, 22182.048828125, -24250.681640625, -25328.75, -25697.7109375, -0.06200000271201134, 0.956000030040741, 0.23600001633167267, 192.0, 0.0, 0.0, 0.0, 0.0, 0.0, 0.0, 0.0, 0.0, 0.0, 1.6154779160827615E9, 2021-03-11 16:51:56.082
228.0, 160155.25, 187500.0, -29702.5390625, -13587.423828125, 23040.267578125, -24298.669921875, -25309.662109375, -25721.24609375, -0.06200000271201134, 0.956000030040741, 0.23600001633167267, 192.0, 0.0, 0.0, 0.0, 0.0, 0.0, 0.0, 0.0, 0.0, 0.0, 1.6154779160827644E9, 2021-03-11 16:51:56.082
229.0, 160057.21875, 187500.0, -25513.77734375, -13740.2646484375, 25457.138671875, -24458.306640625, -25397.99609375, -25853.703125, -0.06200000271201134, 0.956000030040741, 0.23600001633167267, 192.0, 0.0, 0.0, 0.0, 0.0, 0.0, 0.0, 0.0, 0.0, 0.0, 1.6154779160827675E9, 2021-03-11 16:51:56.082
230.0, 159987.484375, 187500.0, -18424.474609375, -13830.56640625, 26513.9296875, -24540.58203125, -25481.14453125, -25936.76171875, -0.06200000271201134, 0.956000030040741, 0.23600001633167267, 192.0, 0.0, 0.0, 0.0, 0.0, 0.0, 0.0, 0.0, 0.0, 0.0, 1.6154779160827703E9, 2021-03-11 16:51:56.082
231.0, 160050.515625, 187500.0, -18783.421875, -13704.7705078125, 24290.779296875, -24397.419921875, -25431.232421875, -25826.412109375, -0.06200000271201134, 0.956000030040741, 0.23600001633167267, 192.0, 0.0, 0.0, 0.0, 0.0, 0.0, 0.0, 0.0, 0.0, 0.0, 1.6154779160827737E9, 2021-03-11 16:51:56.082
232.0, 160166.734375, 187500.0, -26081.220703125, -13555.908203125, 22172.125, -24240.599609375, -25316.880859375, -25691.2734375, -0.06200000271201134, 0.956000030040741, 0.23600001633167267, 192.0, 0.0, 0.0, 0.0, 0.0, 0.0, 0.0, 0.0, 0.0, 0.0, 1.6154779160827763E9, 2021-03-11 16:51:56.082
233.0, 160163.90625, 187500.0, -29654.416015625, -13602.533203125, 23043.91015625, -24287.986328125, -25308.119140625, -25719.01171875, -0.06200000271201134, 0.956000030040741, 0.23600001633167267, 192.0, 0.0, 0.0, 0.0, 0.0, 0.0, 0.0, 0.0, 0.0, 0.0, 1.6154779160827794E9, 2021-03-11 16:51:56.082
234.0, 160057.015625, 187500.0, -25413.5078125, -13766.9755859375, 25466.861328125, -24457.634765625, -25401.728515625, -25859.0, -0.06200000271201134, 0.956000030040741, 0.23600001633167267, 192.0, 0.0, 0.0, 0.0, 0.0, 0.0, 0.0, 0.0, 0.0, 0.0, 1.6154779160827823E9, 2021-03-11 16:51:56.082
235.0, 159984.265625, 187500.0, -18351.7421875, -13852.626953125, 26508.498046875, -24539.107421875, -25482.328125, -25937.767578125, -0.06200000271201134, 0.956000030040741, 0.23600001633167267, 192.0, 0.0, 0.0, 0.0, 0.0, 0.0, 0.0, 0.0, 0.0, 0.0, 1.615477916082785E9, 2021-03-11 16:51:56.082
236.0, 160059.8125, 187500.0, -18810.244140625, -13708.681640625, 24284.7890625, -24376.87890625, -25412.435546875, -25806.630859375, -0.05000000074505806, 0.9440000653266907, 0.2460000067949295, 192.0, 254.0, 112.0, 29.0, 128.0, 7.0, 176.0, 0.0, 0.0, 0.0, 1.6154779160827878E9, 2021-03-11 16:51:56.082
237.0, 160167.078125, 187500.0, -26112.55859375, -13573.7890625, 22200.6015625, -24236.041015625, -25311.181640625, -25683.0703125, -0.05000000074505806, 0.9440000653266907, 0.2460000067949295, 192.0, 0.0, 0.0, 0.0, 0.0, 0.0, 0.0, 0.0, 0.0, 0.0, 1.6154779160827909E9, 2021-03-11 16:51:56.082
238.0, 160152.59375, 187500.0, -29584.72265625, -13625.1533203125, 23106.40625, -24294.490234375, -25312.8359375, -25720.755859375, -0.05000000074505806, 0.9440000653266907, 0.2460000067949295, 192.0, 0.0, 0.0, 0.0, 0.0, 0.0, 0.0, 0.0, 0.0, 0.0, 1.615477916082794E9, 2021-03-11 16:51:56.082
239.0, 160049.96875, 187500.0, -25285.6328125, -13783.11328125, 25521.623046875, -24458.75390625, -25407.361328125, -25857.525390625, -0.05000000074505806, 0.9440000653266907, 0.2460000067949295, 192.0, 0.0, 0.0, 0.0, 0.0, 0.0, 0.0, 0.0, 0.0, 0.0, 1.6154779160827992E9, 2021-03-11 16:51:56.082
240.0, 159986.09375, 187500.0, -18272.974609375, -13850.5712890625, 26517.818359375, -24523.998046875, -25479.9140625, -25928.267578125, -0.05000000074505806, 0.9440000653266907, 0.2460000067949295, 192.0, 0.0, 0.0, 0.0, 0.0, 0.0, 0.0, 0.0, 0.0, 0.0, 1.6154779160828023E9, 2021-03-11 16:51:56.082
241.0, 160050.515625, 187500.0, -18851.482421875, -13719.25390625, 24244.220703125, -24376.296875, -25420.771484375, -25809.357421875, -0.05000000074505806, 0.9440000653266907, 0.2460000067949295, 192.0, 0.0, 0.0, 0.0, 0.0, 0.0, 0.0, 0.0, 0.0, 0.0, 1.6154779160828052E9, 2021-03-11 16:51:56.082
242.0, 160153.109375, 187500.0, -26152.345703125, -13590.1728515625, 22136.697265625, -24238.185546875, -25319.96484375, -25689.5078125, -0.05000000074505806, 0.9440000653266907, 0.2460000067949295, 192.0, 0.0, 0.0, 0.0, 0.0, 0.0, 0.0, 0.0, 0.0, 0.0, 1.615477916082808E9, 2021-03-11 16:51:56.082
243.0, 160146.375, 187500.0, -29551.173828125, -13639.01171875, 23031.125, -24293.1484375, -25318.06640625, -25722.833984375, -0.05000000074505806, 0.9440000653266907, 0.2460000067949295, 192.0, 0.0, 0.0, 0.0, 0.0, 0.0, 0.0, 0.0, 0.0, 0.0, 1.6154779160828109E9, 2021-03-11 16:51:56.082
244.0, 160048.390625, 187500.0, -25197.5, -13791.8974609375, 25450.6796875, -24449.947265625, -25397.861328125, -25847.35546875, -0.05000000074505806, 0.9440000653266907, 0.2460000067949295, 192.0, 0.0, 0.0, 0.0, 0.0, 0.0, 0.0, 0.0, 0.0, 0.0, 1.6154779160828135E9, 2021-03-11 16:51:56.082
245.0, 159980.34375, 187500.0, -18224.5390625, -13867.5361328125, 26424.544921875, -24523.841796875, -25476.80859375, -25924.267578125, -0.05000000074505806, 0.9440000653266907, 0.2460000067949295, 192.0, 0.0, 0.0, 0.0, 0.0, 0.0, 0.0, 0.0, 0.0, 0.0, 1.6154779160828168E9, 2021-03-11 16:51:56.082
246.0, 160049.546875, 187500.0, -18923.09765625, -13730.5419921875, 24141.068359375, -24370.150390625, -25422.224609375, -25808.373046875, -0.05400000140070915, 0.9260000586509705, 0.2580000162124634, 192.0, 254.0, 80.0, 28.0, 240.0, 8.0, 16.0, 0.0, 0.0, 0.0, 1.6154779160828197E9, 2021-03-11 16:51:56.082
247.0, 160154.53125, 187500.0, -26230.3515625, -13592.408203125, 22097.828125, -24230.900390625, -25316.12109375, -25685.818359375, -0.05400000140070915, 0.9260000586509705, 0.2580000162124634, 192.0, 0.0, 0.0, 0.0, 0.0, 0.0, 0.0, 0.0, 0.0, 0.0, 1.6154779160828228E9, 2021-03-11 16:51:56.082
248.0, 160138.46875, 187500.0, -29557.744140625, -13649.9189453125, 23035.1484375, -24297.328125, -25323.251953125, -25728.130859375, -0.05400000140070915, 0.9260000586509705, 0.2580000162124634, 192.0, 0.0, 0.0, 0.0, 0.0, 0.0, 0.0, 0.0, 0.0, 0.0, 1.6154779160828257E9, 2021-03-11 16:51:56.082
249.0, 160041.859375, 187500.0, -25134.87109375, -13799.8544921875, 25464.26953125, -24454.640625, -25417.84375, -25862.330078125, -0.05400000140070915, 0.9260000586509705, 0.2580000162124634, 192.0, 0.0, 0.0, 0.0, 0.0, 0.0, 0.0, 0.0, 0.0, 0.0, 1.6154779160828283E9, 2021-03-11 16:51:56.082
250.0, 159975.9375, 187500.0, -18195.99609375, -13875.8056640625, 26413.4140625, -24524.578125, -25487.40234375, -25932.1796875, -0.05400000140070915, 0.9260000586509705, 0.2580000162124634, 192.0, 0.0, 0.0, 0.0, 0.0, 0.0, 0.0, 0.0, 0.0, 0.0, 1.6154779160828311E9, 2021-03-11 16:51:56.082
251.0, 160053.59375, 187500.0, -18973.076171875, -13736.5322265625, 24123.0078125, -24363.69140625, -25421.845703125, -25804.193359375, -0.05400000140070915, 0.9260000586509705, 0.2580000162124634, 192.0, 0.0, 0.0, 0.0, 0.0, 0.0, 0.0, 0.0, 0.0, 0.0, 1.615477916082834E9, 2021-03-11 16:51:56.082
252.0, 160158.140625, 187500.0, -26248.412109375, -13613.306640625, 22094.9453125, -24226.474609375, -25321.552734375, -25685.931640625, -0.05400000140070915, 0.9260000586509705, 0.2580000162124634, 192.0, 0.0, 0.0, 0.0, 0.0, 0.0, 0.0, 0.0, 0.0, 0.0, 1.6154779160828369E9, 2021-03-11 16:51:56.082
253.0, 160142.265625, 187500.0, -29464.537109375, -13672.986328125, 23058.283203125, -24290.109375, -25314.01953125, -25724.30859375, -0.05400000140070915, 0.9260000586509705, 0.2580000162124634, 192.0, 0.0, 0.0, 0.0, 0.0, 0.0, 0.0, 0.0, 0.0, 0.0, 1.61547791608284E9, 2021-03-11 16:51:56.082
254.0, 160045.859375, 187500.0, -24993.83203125, -13828.5322265625, 25475.6015625, -24450.7734375, -25406.04296875, -25858.44140625, -0.05400000140070915, 0.9260000586509705, 0.2580000162124634, 192.0, 0.0, 0.0, 0.0, 0.0, 0.0, 0.0, 0.0, 0.0, 0.0, 1.6154779160828428E9, 2021-03-11 16:51:56.082
255.0, 159985.25, 187500.0, -18087.880859375, -13933.2724609375, 26390.501953125, -24517.091796875, -25480.25, -25928.40234375, -0.05400000140070915, 0.9260000586509705, 0.2580000162124634, 192.0, 0.0, 0.0, 0.0, 0.0, 0.0, 0.0, 0.0, 0.0, 0.0, 1.6154779160828457E9, 2021-03-11 16:51:56.082
0.0, 160054.4375, 187500.0, -18998.556640625, -13965.50390625, 24068.15625, -24368.33984375, -25420.4140625, -25810.900390625, -0.06400000303983688, 0.9120000600814819, 0.26200002431869507, 192.0, 254.0, 0.0, 28.0, 128.0, 8.0, 48.0, 0.0, 0.0, 0.0, 1.6154779160828488E9, 2021-03-11 16:51:56.082
1.0, 160158.140625, 187500.0, -26287.349609375, -13948.046875, 22067.65234375, -24229.916015625, -25311.517578125, -25685.037109375, -0.06400000303983688, 0.9120000600814819, 0.26200002431869507, 192.0, 0.0, 0.0, 0.0, 0.0, 0.0, 0.0, 0.0, 0.0, 0.0, 1.6154779160828516E9, 2021-03-11 16:51:56.082
2.0, 160146.3125, 187500.0, -29450.30078125, -14020.7119140625, 23048.201171875, -24294.51171875, -25316.12109375, -25730.947265625, -0.06400000303983688, 0.9120000600814819, 0.26200002431869507, 192.0, 0.0, 0.0, 0.0, 0.0, 0.0, 0.0, 0.0, 0.0, 0.0, 1.6154779160828545E9, 2021-03-11 16:51:56.082
3.0, 160039.578125, 187500.0, -24912.94140625, -14190.09375, 25452.935546875, -24466.15234375, -25419.36328125, -25876.859375, -0.06400000303983688, 0.9120000600814819, 0.26200002431869507, 192.0, 0.0, 0.0, 0.0, 0.0, 0.0, 0.0, 0.0, 0.0, 0.0, 1.6154779160828571E9, 2021-03-11 16:51:56.082
4.0, 159974.421875, 187500.0, -18029.1171875, -14266.7822265625, 26330.509765625, -24533.630859375, -25491.515625, -25945.501953125, -0.06400000303983688, 0.9120000600814819, 0.26200002431869507, 192.0, 0.0, 0.0, 0.0, 0.0, 0.0, 0.0, 0.0, 0.0, 0.0, 1.61547791608286E9, 2021-03-11 16:51:56.082
5.0, 160056.046875, 187500.0, -19037.29296875, -14127.888671875, 23987.64453125, -24374.7109375, -25423.56640625, -25818.365234375, -0.06400000303983688, 0.9120000600814819, 0.26200002431869507, 192.0, 0.0, 0.0, 0.0, 0.0, 0.0, 0.0, 0.0, 0.0, 0.0, 1.615477916082863E9, 2021-03-11 16:51:56.082
6.0, 160157.59375, 187500.0, -26325.19140625, -14000.1044921875, 22027.263671875, -24241.830078125, -25320.814453125, -25697.330078125, -0.06400000303983688, 0.9120000600814819, 0.26200002431869507, 192.0, 0.0, 0.0, 0.0, 0.0, 0.0, 0.0, 0.0, 0.0, 0.0, 1.615477916082869E9, 2021-03-11 16:51:56.082
7.0, 160139.6875, 187500.0, -29404.5234375, -14066.6455078125, 23051.978515625, -24310.091796875, -25325.017578125, -25743.12890625, -0.06400000303983688, 0.9120000600814819, 0.26200002431869507, 192.0, 0.0, 0.0, 0.0, 0.0, 0.0, 0.0, 0.0, 0.0, 0.0, 1.615477916082872E9, 2021-03-11 16:51:56.082
8.0, 160046.84375, 187500.0, -24822.662109375, -14215.2841796875, 25477.009765625, -24466.93359375, -25419.341796875, -25879.943359375, -0.06400000303983688, 0.9120000600814819, 0.26200002431869507, 192.0, 0.0, 0.0, 0.0, 0.0, 0.0, 0.0, 0.0, 0.0, 0.0, 1.6154779160828748E9, 2021-03-11 16:51:56.082
9.0, 159984.328125, 187500.0, -17952.271484375, -14285.8935546875, 26340.234375, -24528.177734375, -25488.341796875, -25941.455078125, -0.06400000303983688, 0.9120000600814819, 0.26200002431869507, 192.0, 0.0, 0.0, 0.0, 0.0, 0.0, 0.0, 0.0, 0.0, 0.0, 1.6154779160828779E9, 2021-03-11 16:51:56.082
10.0, 160060.546875, 187500.0, -19041.763671875, -14138.908203125, 23984.001953125, -24359.064453125, -25407.830078125, -25802.763671875, -0.0820000022649765, 0.9140000343322754, 0.2720000147819519, 192.0, 253.0, 112.0, 28.0, 144.0, 8.0, 128.0, 0.0, 0.0, 0.0, 1.6154779160828805E9, 2021-03-11 16:51:56.082
11.0, 160163.859375, 187500.0, -26354.671875, -14003.3447265625, 22043.490234375, -24225.625, -25306.912109375, -25687.25, -0.0820000022649765, 0.9140000343322754, 0.2720000147819519, 192.0, 0.0, 0.0, 0.0, 0.0, 0.0, 0.0, 0.0, 0.0, 0.0, 1.6154779160829024E9, 2021-03-11 16:51:56.082
12.0, 160147.859375, 187500.0, -29393.2578125, -14070.19921875, 23087.00390625, -24292.701171875, -25309.99609375, -25731.484375, -0.0820000022649765, 0.9140000343322754, 0.2720000147819519, 192.0, 0.0, 0.0, 0.0, 0.0, 0.0, 0.0, 0.0, 0.0, 0.0, 1.615477916545339E9, 2021-03-11 16:51:56.545
13.0, 160043.6875, 187500.0, -24723.912109375, -14238.5302734375, 25489.1015625, -24462.486328125, -25408.2109375, -25873.619140625, -0.0820000022649765, 0.9140000343322754, 0.2720000147819519, 192.0, 0.0, 0.0, 0.0, 0.0, 0.0, 0.0, 0.0, 0.0, 0.0, 1.615477916545466E9, 2021-03-11 16:51:56.545
14.0, 159985.125, 187500.0, -17856.875, -14300.7578125, 26316.228515625, -24519.505859375, -25484.05078125, -25938.169921875, -0.0820000022649765, 0.9140000343322754, 0.2720000147819519, 192.0, 0.0, 0.0, 0.0, 0.0, 0.0, 0.0, 0.0, 0.0, 0.0, 1.6154779165454693E9, 2021-03-11 16:51:56.545
15.0, 160066.453125, 187500.0, -19054.1015625, -14147.5810546875, 23939.1640625, -24350.302734375, -25402.623046875, -25797.599609375, -0.0820000022649765, 0.9140000343322754, 0.2720000147819519, 192.0, 0.0, 0.0, 0.0, 0.0, 0.0, 0.0, 0.0, 0.0, 0.0, 1.6154779165454724E9, 2021-03-11 16:51:56.545
16.0, 160166.15625, 187500.0, -26352.302734375, -14019.0810546875, 22044.49609375, -24215.767578125, -25295.06640625, -25675.716796875, -0.0820000022649765, 0.9140000343322754, 0.2720000147819519, 192.0, 0.0, 0.0, 0.0, 0.0, 0.0, 0.0, 0.0, 0.0, 0.0, 1.6154779165454752E9, 2021-03-11 16:51:56.545
17.0, 160154.109375, 187500.0, -29294.5078125, -14069.5732421875, 23103.9921875, -24273.078125, -25289.0078125, -25709.1328125, -0.0820000022649765, 0.9140000343322754, 0.2720000147819519, 192.0, 0.0, 0.0, 0.0, 0.0, 0.0, 0.0, 0.0, 0.0, 0.0, 1.615477916545478E9, 2021-03-11 16:51:56.545
18.0, 160058.359375, 187500.0, -24582.224609375, -14215.955078125, 25481.546875, -24425.203125, -25378.6171875, -25838.83984375, -0.0820000022649765, 0.9140000343322754, 0.2720000147819519, 192.0, 0.0, 0.0, 0.0, 0.0, 0.0, 0.0, 0.0, 0.0, 0.0, 1.6154779165454812E9, 2021-03-11 16:51:56.545
19.0, 159994.1875, 187500.0, -17767.7578125, -14283.748046875, 26169.15234375, -24490.873046875, -25459.3515625, -25907.48046875, -0.08800000697374344, 0.9220000505447388, 0.2720000147819519, 192.0, 253.0, 64.0, 28.0, 208.0, 8.0, 128.0, 0.0, 0.0, 0.0, 1.6154779165454843E9, 2021-03-11 16:51:56.545
20.0, 160063.34375, 187500.0, -19093.798828125, -14142.529296875, 23741.9765625, -24337.2265625, -25396.431640625, -25784.033203125, -0.08800000697374344, 0.9220000505447388, 0.2720000147819519, 192.0, 0.0, 0.0, 0.0, 0.0, 0.0, 0.0, 0.0, 0.0, 0.0, 1.6154779165454872E9, 2021-03-11 16:51:56.545
21.0, 160172.53125, 187500.0, -26391.486328125, -14009.044921875, 21986.716796875, -24200.904296875, -25288.3828125, -25661.27734375, -0.08800000697374344, 0.9220000505447388, 0.2720000147819519, 192.0, 0.0, 0.0, 0.0, 0.0, 0.0, 0.0, 0.0, 0.0, 0.0, 1.6154779165454905E9, 2021-03-11 16:51:56.545
22.0, 160149.109375, 187500.0, -29256.5546875, -14078.9384765625, 23053.431640625, -24278.84375, -25302.330078125, -25719.4140625, -0.08800000697374344, 0.9220000505447388, 0.2720000147819519, 192.0, 0.0, 0.0, 0.0, 0.0, 0.0, 0.0, 0.0, 0.0, 0.0, 1.6154779165454934E9, 2021-03-11 16:51:56.545
23.0, 160037.65625, 187500.0, -24473.728515625, -14249.169921875, 25295.06640625, -24454.998046875, -25418.0, -25876.994140625, -0.08800000697374344, 0.9220000505447388, 0.2720000147819519, 192.0, 0.0, 0.0, 0.0, 0.0, 0.0, 0.0, 0.0, 0.0, 0.0, 1.6154779165454965E9, 2021-03-11 16:51:56.545
24.0, 159981.234375, 187500.0, -17679.021484375, -14313.5205078125, 25959.873046875, -24514.587890625, -25494.197265625, -25942.86328125, -0.08800000697374344, 0.9220000505447388, 0.2720000147819519, 192.0, 0.0, 0.0, 0.0, 0.0, 0.0, 0.0, 0.0, 0.0, 0.0, 1.6154779165454996E9, 2021-03-11 16:51:56.545
25.0, 160060.90625, 187500.0, -19106.203125, -14163.0927734375, 23661.421875, -24348.759765625, -25422.494140625, -25808.8203125, -0.08800000697374344, 0.9220000505447388, 0.2720000147819519, 192.0, 0.0, 0.0, 0.0, 0.0, 0.0, 0.0, 0.0, 0.0, 0.0, 1.6154779165455027E9, 2021-03-11 16:51:56.545
26.0, 160162.609375, 187500.0, -26404.3828125, -14039.9794921875, 21991.568359375, -24221.421875, -25317.775390625, -25693.216796875, -0.08800000697374344, 0.9220000505447388, 0.2720000147819519, 192.0, 0.0, 0.0, 0.0, 0.0, 0.0, 0.0, 0.0, 0.0, 0.0, 1.6154779165455055E9, 2021-03-11 16:51:56.545
27.0, 160151.15625, 187500.0, -29192.248046875, -14099.591796875, 23095.36328125, -24289.259765625, -25320.814453125, -25741.384765625, -0.08800000697374344, 0.9220000505447388, 0.2720000147819519, 192.0, 0.0, 0.0, 0.0, 0.0, 0.0, 0.0, 0.0, 0.0, 0.0, 1.615477916545509E9, 2021-03-11 16:51:56.545
28.0, 160048.0, 187500.0, -24361.322265625, -14254.1767578125, 25341.916015625, -24456.451171875, -25420.32421875, -25883.85546875, -0.08800000697374344, 0.9220000505447388, 0.2720000147819519, 192.0, 0.0, 0.0, 0.0, 0.0, 0.0, 0.0, 0.0, 0.0, 0.0, 1.6154779165455124E9, 2021-03-11 16:51:56.545
29.0, 159988.6875, 187500.0, -17585.771484375, -14312.8271484375, 25970.916015625, -24512.15234375, -25494.376953125, -25947.603515625, -0.0820000022649765, 0.9160000681877136, 0.2760000228881836, 192.0, 253.0, 112.0, 28.0, 160.0, 8.0, 160.0, 0.0, 0.0, 0.0, 1.6154779165455227E9, 2021-03-11 16:51:56.545
30.0, 160068.125, 187500.0, -19108.21484375, -14156.9912109375, 23648.7265625, -24337.740234375, -25421.46484375, -25810.162109375, -0.0820000022649765, 0.9160000681877136, 0.2760000228881836, 192.0, 0.0, 0.0, 0.0, 0.0, 0.0, 0.0, 0.0, 0.0, 0.0, 1.6154779165455258E9, 2021-03-11 16:51:56.545
31.0, 160176.265625, 187500.0, -26432.390625, -14022.634765625, 22012.533203125, -24203.18359375, -25307.962890625, -25687.830078125, -0.0820000022649765, 0.9160000681877136, 0.2760000228881836, 192.0, 0.0, 0.0, 0.0, 0.0, 0.0, 0.0, 0.0, 0.0, 0.0, 1.615477916545529E9, 2021-03-11 16:51:56.545
32.0, 160157.0, 187500.0, -29150.71875, -14082.7607421875, 23155.04296875, -24274.150390625, -25315.31640625, -25738.166015625, -0.0820000022649765, 0.9160000681877136, 0.2760000228881836, 192.0, 0.0, 0.0, 0.0, 0.0, 0.0, 0.0, 0.0, 0.0, 0.0, 1.6154779165455317E9, 2021-03-11 16:51:56.545
33.0, 160038.484375, 187500.0, -24244.17578125, -14252.7685546875, 25394.509765625, -24455.892578125, -25434.474609375, -25902.072265625, -0.0820000022649765, 0.9160000681877136, 0.2760000228881836, 192.0, 0.0, 0.0, 0.0, 0.0, 0.0, 0.0, 0.0, 0.0, 0.0, 1.6154779165455348E9, 2021-03-11 16:51:56.545
34.0, 159970.109375, 187500.0, -17495.89453125, -14323.466796875, 25989.265625, -24515.59375, -25509.375, -25965.171875, -0.0820000022649765, 0.9160000681877136, 0.2760000228881836, 192.0, 0.0, 0.0, 0.0, 0.0, 0.0, 0.0, 0.0, 0.0, 0.0, 1.615477916545538E9, 2021-03-11 16:51:56.545
35.0, 160052.0, 187500.0, -19099.36328125, -14166.2890625, 23672.28515625, -24339.73046875, -25426.91796875, -25818.0078125, -0.0820000022649765, 0.9160000681877136, 0.2760000228881836, 192.0, 0.0, 0.0, 0.0, 0.0, 0.0, 0.0, 0.0, 0.0, 0.0, 1.615477916545541E9, 2021-03-11 16:51:56.545
36.0, 160141.609375, 187500.0, -26435.09375, -14045.7685546875, 22056.052734375, -24219.923828125, -25336.86328125, -25711.94921875, -0.0820000022649765, 0.9160000681877136, 0.2760000228881836, 192.0, 0.0, 0.0, 0.0, 0.0, 0.0, 0.0, 0.0, 0.0, 0.0, 1.615477916545544E9, 2021-03-11 16:51:56.545
37.0, 160118.75, 187500.0, -29063.458984375, -14109.11328125, 23214.185546875, -24294.646484375, -25342.67578125, -25761.8828125, -0.0820000022649765, 0.9160000681877136, 0.2760000228881836, 192.0, 0.0, 0.0, 0.0, 0.0, 0.0, 0.0, 0.0, 0.0, 0.0, 1.6154779165455468E9, 2021-03-11 16:51:56.545
38.0, 160024.828125, 187500.0, -24056.82421875, -14252.1865234375, 25462.212890625, -24446.125, -25428.439453125, -25889.376953125, -0.0820000022649765, 0.9160000681877136, 0.2760000228881836, 192.0, 0.0, 0.0, 0.0, 0.0, 0.0, 0.0, 0.0, 0.0, 0.0, 1.61547791654555E9, 2021-03-11 16:51:56.545
39.0, 159973.78125, 187500.0, -17324.814453125, -14296.8681640625, 26031.7578125, -24487.744140625, -25494.443359375, -25941.298828125, -0.058000002056360245, 0.906000018119812, 0.2720000147819519, 192.0, 254.0, 48.0, 28.0, 80.0, 8.0, 128.0, 0.0, 0.0, 0.0, 1.6154779165455532E9, 2021-03-11 16:51:56.545
40.0, 160055.046875, 187500.0, -19036.890625, -14137.052734375, 23700.08984375, -24317.466796875, -25416.16796875, -25802.607421875, -0.058000002056360245, 0.906000018119812, 0.2720000147819519, 192.0, 0.0, 0.0, 0.0, 0.0, 0.0, 0.0, 0.0, 0.0, 0.0, 1.6154779165455563E9, 2021-03-11 16:51:56.545
41.0, 160163.859375, 187500.0, -26408.5625, -14003.7470703125, 22134.08203125, -24185.01171875, -25311.248046875, -25682.3984375, -0.058000002056360245, 0.906000018119812, 0.2720000147819519, 192.0, 0.0, 0.0, 0.0, 0.0, 0.0, 0.0, 0.0, 0.0, 0.0, 1.6154779165455592E9, 2021-03-11 16:51:56.545
42.0, 160147.1875, 187500.0, -28994.1015625, -14066.935546875, 23324.9609375, -24255.91015625, -25318.826171875, -25732.6015625, -0.058000002056360245, 0.906000018119812, 0.2720000147819519, 192.0, 0.0, 0.0, 0.0, 0.0, 0.0, 0.0, 0.0, 0.0, 0.0, 1.6154779165455625E9, 2021-03-11 16:51:56.545
43.0, 160038.6875, 187500.0, -23929.240234375, -14229.25390625, 25556.626953125, -24428.623046875, -25424.236328125, -25879.384765625, -0.058000002056360245, 0.906000018119812, 0.2720000147819519, 192.0, 0.0, 0.0, 0.0, 0.0, 0.0, 0.0, 0.0, 0.0, 0.0, 1.6154779165455656E9, 2021-03-11 16:51:56.545
44.0, 159986.15625, 187500.0, -17245.822265625, -14279.4560546875, 26079.208984375, -24476.880859375, -25488.85546875, -25931.62109375, -0.058000002056360245, 0.906000018119812, 0.2720000147819519, 192.0, 0.0, 0.0, 0.0, 0.0, 0.0, 0.0, 0.0, 0.0, 0.0, 1.6154779165455685E9, 2021-03-11 16:51:56.545
45.0, 160053.21875, 187500.0, -19065.9921875, -14140.4501953125, 23719.357421875, -24321.625, -25420.861328125, -25806.5625, -0.058000002056360245, 0.906000018119812, 0.2720000147819519, 192.0, 0.0, 0.0, 0.0, 0.0, 0.0, 0.0, 0.0, 0.0, 0.0, 1.6154779165455713E9, 2021-03-11 16:51:56.545
46.0, 160145.6875, 187500.0, -26446.13671875, -14032.55859375, 22189.0, -24209.93359375, -25321.41796875, -25703.185546875, -0.058000002056360245, 0.906000018119812, 0.2720000147819519, 192.0, 0.0, 0.0, 0.0, 0.0, 0.0, 0.0, 0.0, 0.0, 0.0, 1.615477916545575E9, 2021-03-11 16:51:56.545
47.0, 160126.796875, 187500.0, -28936.857421875, -14102.85546875, 23411.55078125, -24289.39453125, -25328.2578125, -25756.71875, -0.058000002056360245, 0.906000018119812, 0.2720000147819519, 192.0, 0.0, 0.0, 0.0, 0.0, 0.0, 0.0, 0.0, 0.0, 0.0, 1.6154779165455778E9, 2021-03-11 16:51:56.545
48.0, 160031.984375, 187500.0, -23824.58984375, -14250.17578125, 25627.8828125, -24451.712890625, -25423.140625, -25895.12109375, -0.058000002056360245, 0.906000018119812, 0.2720000147819519, 192.0, 0.0, 0.0, 0.0, 0.0, 0.0, 0.0, 0.0, 0.0, 0.0, 1.6154779165455806E9, 2021-03-11 16:51:56.545
49.0, 159983.359375, 187500.0, -17159.03125, -14300.064453125, 26137.548828125, -24496.03515625, -25486.732421875, -25947.71484375, -0.05400000140070915, 0.9160000681877136, 0.25600001215934753, 192.0, 254.0, 80.0, 28.0, 160.0, 8.0, 0.0, 0.0, 0.0, 0.0, 1.6154779165455835E9, 2021-03-11 16:51:56.545
50.0, 160073.546875, 187500.0, -19081.37109375, -14144.18359375, 23818.0859375, -24321.46875, -25401.884765625, -25805.78125, -0.05400000140070915, 0.9160000681877136, 0.25600001215934753, 192.0, 0.0, 0.0, 0.0, 0.0, 0.0, 0.0, 0.0, 0.0, 0.0, 1.6154779165455866E9, 2021-03-11 16:51:56.545
51.0, 160178.984375, 187500.0, -26485.140625, -14021.6513671875, 22357.64453125, -24195.427734375, -25290.23828125, -25690.9609375, -0.05400000140070915, 0.9160000681877136, 0.25600001215934753, 192.0, 0.0, 0.0, 0.0, 0.0, 0.0, 0.0, 0.0, 0.0, 0.0, 1.61547791654559E9, 2021-03-11 16:51:56.545
52.0, 160156.96875, 187500.0, -28862.78515625, -14092.3271484375, 23660.28125, -24275.46875, -25300.810546875, -25742.458984375, -0.05400000140070915, 0.9160000681877136, 0.25600001215934753, 192.0, 0.0, 0.0, 0.0, 0.0, 0.0, 0.0, 0.0, 0.0, 0.0, 1.6154779165455933E9, 2021-03-11 16:51:56.545
53.0, 160051.8125, 187500.0, -23629.951171875, -14253.05859375, 25979.56640625, -24441.720703125, -25406.19921875, -25887.0078125, -0.05400000140070915, 0.9160000681877136, 0.25600001215934753, 192.0, 0.0, 0.0, 0.0, 0.0, 0.0, 0.0, 0.0, 0.0, 0.0, 1.6154779165455997E9, 2021-03-11 16:51:56.545
54.0, 160006.125, 187500.0, -16985.9609375, -14295.4599609375, 26587.01953125, -24482.06640625, -25462.904296875, -25934.90625, -0.05400000140070915, 0.9160000681877136, 0.25600001215934753, 192.0, 0.0, 0.0, 0.0, 0.0, 0.0, 0.0, 0.0, 0.0, 0.0, 1.6154779165456028E9, 2021-03-11 16:51:56.545
55.0, 160096.234375, 187500.0, -19009.353515625, -14130.9287109375, 24171.01953125, -24304.03515625, -25375.8671875, -25787.564453125, -0.05400000140070915, 0.9160000681877136, 0.25600001215934753, 192.0, 0.0, 0.0, 0.0, 0.0, 0.0, 0.0, 0.0, 0.0, 0.0, 1.615477916545606E9, 2021-03-11 16:51:56.545
56.0, 160192.875, 187500.0, -26428.724609375, -14019.5498046875, 22538.603515625, -24192.54296875, -25286.3046875, -25687.31640625, -0.05400000140070915, 0.9160000681877136, 0.25600001215934753, 192.0, 0.0, 0.0, 0.0, 0.0, 0.0, 0.0, 0.0, 0.0, 0.0, 1.6154779165456088E9, 2021-03-11 16:51:56.545
57.0, 160166.53125, 187500.0, -28740.23046875, -14094.3837890625, 23822.509765625, -24275.267578125, -25304.498046875, -25748.158203125, -0.05400000140070915, 0.9160000681877136, 0.25600001215934753, 192.0, 0.0, 0.0, 0.0, 0.0, 0.0, 0.0, 0.0, 0.0, 0.0, 1.6154779165456116E9, 2021-03-11 16:51:56.545
58.0, 160062.640625, 187500.0, -23447.11328125, -14251.8291015625, 26207.0625, -24440.55859375, -25412.009765625, -25894.65234375, -0.05400000140070915, 0.9160000681877136, 0.25600001215934753, 192.0, 0.0, 0.0, 0.0, 0.0, 0.0, 0.0, 0.0, 0.0, 0.0, 1.6154779165456147E9, 2021-03-11 16:51:56.545
59.0, 160019.28125, 187500.0, -16841.994140625, -14289.849609375, 26745.404296875, -24478.6015625, -25468.3359375, -25936.203125, -0.046000003814697266, 0.9360000491142273, 0.23800000548362732, 192.0, 254.0, 144.0, 29.0, 64.0, 7.0, 112.0, 0.0, 0.0, 0.0, 1.615477916545618E9, 2021-03-11 16:51:56.545
60.0, 160099.890625, 187500.0, -18965.119140625, -14140.31640625, 24168.626953125, -24308.28125, -25396.587890625, -25803.255859375, -0.046000003814697266, 0.9360000491142273, 0.23800000548362732, 192.0, 0.0, 0.0, 0.0, 0.0, 0.0, 0.0, 0.0, 0.0, 0.0, 1.6154779165456212E9, 2021-03-11 16:51:56.545
61.0, 160196.9375, 187500.0, -26400.001953125, -14023.9306640625, 22489.9453125, -24188.6328125, -25299.134765625, -25697.396484375, -0.046000003814697266, 0.9360000491142273, 0.23800000548362732, 192.0, 0.0, 0.0, 0.0, 0.0, 0.0, 0.0, 0.0, 0.0, 0.0, 1.615477916545624E9, 2021-03-11 16:51:56.545
62.0, 160171.390625, 187500.0, -28651.828125, -14094.853515625, 23838.603515625, -24268.71875, -25302.732421875, -25747.689453125, -0.046000003814697266, 0.9360000491142273, 0.23800000548362732, 192.0, 0.0, 0.0, 0.0, 0.0, 0.0, 0.0, 0.0, 0.0, 0.0, 1.615477916545627E9, 2021-03-11 16:51:56.545
63.0, 160067.625, 187500.0, -23295.45703125, -14250.935546875, 26256.615234375, -24430.6796875, -25404.56640625, -25885.443359375, -0.046000003814697266, 0.9360000491142273, 0.23800000548362732, 192.0, 0.0, 0.0, 0.0, 0.0, 0.0, 0.0, 0.0, 0.0, 0.0, 1.6154779165456305E9, 2021-03-11 16:51:56.545
64.0, 160024.421875, 187500.0, -16742.08203125, -14296.8232421875, 26779.154296875, -24466.353515625, -25461.7421875, -25928.55859375, -0.046000003814697266, 0.9360000491142273, 0.23800000548362732, 192.0, 0.0, 0.0, 0.0, 0.0, 0.0, 0.0, 0.0, 0.0, 0.0, 1.6154779165456336E9, 2021-03-11 16:51:56.545
65.0, 160116.671875, 187500.0, -18972.830078125, -14141.5234375, 24204.76953125, -24282.017578125, -25372.671875, -25776.052734375, -0.046000003814697266, 0.9360000491142273, 0.23800000548362732, 192.0, 0.0, 0.0, 0.0, 0.0, 0.0, 0.0, 0.0, 0.0, 0.0, 1.6154779165456364E9, 2021-03-11 16:51:56.545
66.0, 160198.953125, 187500.0, -26399.80078125, -14041.0751953125, 22542.359375, -24178.841796875, -25288.78515625, -25682.064453125, -0.046000003814697266, 0.9360000491142273, 0.23800000548362732, 192.0, 0.0, 0.0, 0.0, 0.0, 0.0, 0.0, 0.0, 0.0, 0.0, 1.6154779165456395E9, 2021-03-11 16:51:56.545
67.0, 160173.4375, 187500.0, -28568.412109375, -14116.869140625, 23907.267578125, -24260.60546875, -25307.984375, -25743.083984375, -0.046000003814697266, 0.9360000491142273, 0.23800000548362732, 192.0, 0.0, 0.0, 0.0, 0.0, 0.0, 0.0, 0.0, 0.0, 0.0, 1.6154779165456429E9, 2021-03-11 16:51:56.545
68.0, 160065.109375, 187500.0, -23146.951171875, -14275.8125, 26344.0546875, -24426.029296875, -25408.634765625, -25883.431640625, -0.046000003814697266, 0.9360000491142273, 0.23800000548362732, 192.0, 0.0, 0.0, 0.0, 0.0, 0.0, 0.0, 0.0, 0.0, 0.0, 1.6154779165456457E9, 2021-03-11 16:51:56.545
69.0, 160020.375, 187500.0, -16612.576171875, -14317.431640625, 26846.478515625, -24464.228515625, -25464.759765625, -25927.62109375, -0.04000000283122063, 0.9340000152587891, 0.23400001227855682, 192.0, 254.0, 192.0, 29.0, 48.0, 7.0, 80.0, 0.0, 0.0, 0.0, 1.6154779165456507E9, 2021-03-11 16:51:56.545
70.0, 160111.125, 187500.0, -18942.587890625, -14161.55078125, 24242.388671875, -24288.677734375, -25378.482421875, -25784.099609375, -0.04000000283122063, 0.9340000152587891, 0.23400001227855682, 192.0, 0.0, 0.0, 0.0, 0.0, 0.0, 0.0, 0.0, 0.0, 0.0, 1.6154779165456536E9, 2021-03-11 16:51:56.545
71.0, 160205.8125, 187500.0, -26399.33203125, -14050.7978515625, 22600.205078125, -24179.4453125, -25278.056640625, -25681.349609375, -0.04000000283122063, 0.9340000152587891, 0.23400001227855682, 192.0, 0.0, 0.0, 0.0, 0.0, 0.0, 0.0, 0.0, 0.0, 0.0, 1.6154779165456564E9, 2021-03-11 16:51:56.545
72.0, 160170.25, 187500.0, -28497.84765625, -14138.662109375, 23972.69140625, -24273.390625, -25302.978515625, -25752.806640625, -0.04000000283122063, 0.9340000152587891, 0.23400001227855682, 192.0, 0.0, 0.0, 0.0, 0.0, 0.0, 0.0, 0.0, 0.0, 0.0, 1.6154779165456588E9, 2021-03-11 16:51:56.545
73.0, 160071.921875, 187500.0, -23016.349609375, -14290.9892578125, 26413.748046875, -24438.435546875, -25402.109375, -25890.515625, -0.04000000283122063, 0.9340000152587891, 0.23400001227855682, 192.0, 0.0, 0.0, 0.0, 0.0, 0.0, 0.0, 0.0, 0.0, 0.0, 1.615477916545662E9, 2021-03-11 16:51:56.545
74.0, 160025.15625, 187500.0, -16529.13671875, -14331.2451171875, 26891.025390625, -24476.076171875, -25457.40625, -25933.38671875, -0.04000000283122063, 0.9340000152587891, 0.23400001227855682, 192.0, 0.0, 0.0, 0.0, 0.0, 0.0, 0.0, 0.0, 0.0, 0.0, 1.615477916545665E9, 2021-03-11 16:51:56.545
75.0, 160119.125, 187500.0, -18954.501953125, -14171.072265625, 24226.474609375, -24297.216796875, -25369.02734375, -25786.849609375, -0.04000000283122063, 0.9340000152587891, 0.23400001227855682, 192.0, 0.0, 0.0, 0.0, 0.0, 0.0, 0.0, 0.0, 0.0, 0.0, 1.615477916545668E9, 2021-03-11 16:51:56.545
76.0, 160208.875, 187500.0, -26387.552734375, -14060.38671875, 22530.06640625, -24189.28125, -25278.123046875, -25691.40625, -0.04000000283122063, 0.9340000152587891, 0.23400001227855682, 192.0, 0.0, 0.0, 0.0, 0.0, 0.0, 0.0, 0.0, 0.0, 0.0, 1.6154779165456724E9, 2021-03-11 16:51:56.545
77.0, 160176.9375, 187500.0, -28395.677734375, -14137.8359375, 23935.9453125, -24275.46875, -25294.796875, -25752.78515625, -0.04000000283122063, 0.9340000152587891, 0.23400001227855682, 192.0, 0.0, 0.0, 0.0, 0.0, 0.0, 0.0, 0.0, 0.0, 0.0, 1.6154779165456753E9, 2021-03-11 16:51:56.545
78.0, 160076.390625, 187500.0, -22825.19921875, -14287.7705078125, 26462.296875, -24434.8359375, -25395.3359375, -25889.30859375, -0.04000000283122063, 0.9340000152587891, 0.23400001227855682, 192.0, 0.0, 0.0, 0.0, 0.0, 0.0, 0.0, 0.0, 0.0, 0.0, 1.615477916545678E9, 2021-03-11 16:51:56.545
79.0, 160025.859375, 187500.0, -16379.849609375, -14325.43359375, 26968.00390625, -24470.197265625, -25456.6015625, -25930.4140625, -0.036000002175569534, 0.9380000233650208, 0.23000000417232513, 192.0, 254.0, 224.0, 29.0, 80.0, 7.0, 48.0, 0.0, 0.0, 0.0, 1.6154779165456803E9, 2021-03-11 16:51:56.545
80.0, 160127.25, 187500.0, -18923.298828125, -14155.716796875, 24226.294921875, -24284.56640625, -25359.103515625, -25776.6796875, -0.036000002175569534, 0.9380000233650208, 0.23000000417232513, 192.0, 0.0, 0.0, 0.0, 0.0, 0.0, 0.0, 0.0, 0.0, 0.0, 1.6154779165456831E9, 2021-03-11 16:51:56.545
81.0, 160215.875, 187500.0, -26376.533203125, -14054.8876953125, 22536.994140625, -24181.703125, -25275.240234375, -25685.841796875, -0.036000002175569534, 0.9380000233650208, 0.23000000417232513, 192.0, 0.0, 0.0, 0.0, 0.0, 0.0, 0.0, 0.0, 0.0, 0.0, 1.6154779165456865E9, 2021-03-11 16:51:56.545
82.0, 160173.59375, 187500.0, -28310.451171875, -14144.2724609375, 24043.61328125, -24279.111328125, -25301.927734375, -25758.39453125, -0.036000002175569534, 0.9380000233650208, 0.23000000417232513, 192.0, 0.0, 0.0, 0.0, 0.0, 0.0, 0.0, 0.0, 0.0, 0.0, 1.615477916545689E9, 2021-03-11 16:51:56.545
83.0, 160068.078125, 187500.0, -22676.0, -14298.5, 26612.208984375, -24436.513671875, -25402.33203125, -25892.68359375, -0.036000002175569534, 0.9380000233650208, 0.23000000417232513, 192.0, 0.0, 0.0, 0.0, 0.0, 0.0, 0.0, 0.0, 0.0, 0.0, 1.615477916545692E9, 2021-03-11 16:51:56.545
84.0, 160034.6875, 187500.0, -16304.3896484375, -14323.8466796875, 27082.6015625, -24452.404296875, -25448.755859375, -25918.009765625, -0.036000002175569534, 0.9380000233650208, 0.23000000417232513, 192.0, 0.0, 0.0, 0.0, 0.0, 0.0, 0.0, 0.0, 0.0, 0.0, 1.6154779165456953E9, 2021-03-11 16:51:56.545
85.0, 160124.03125, 187500.0, -18949.451171875, -14138.8857421875, 24307.587890625, -24275.24609375, -25360.98046875, -25771.1796875, -0.036000002175569534, 0.9380000233650208, 0.23000000417232513, 192.0, 0.0, 0.0, 0.0, 0.0, 0.0, 0.0, 0.0, 0.0, 0.0, 1.615477916545698E9, 2021-03-11 16:51:56.545
86.0, 160215.46875, 187500.0, -26376.95703125, -13986.24609375, 22589.6328125, -24168.13671875, -25264.66796875, -25671.537109375, -0.036000002175569534, 0.9380000233650208, 0.23000000417232513, 192.0, 0.0, 0.0, 0.0, 0.0, 0.0, 0.0, 0.0, 0.0, 0.0, 1.615477916545701E9, 2021-03-11 16:51:56.545
87.0, 160184.953125, 187500.0, -28231.83984375, -14054.59765625, 24073.96875, -24257.162109375, -25278.078125, -25734.255859375, -0.036000002175569534, 0.9380000233650208, 0.23000000417232513, 192.0, 0.0, 0.0, 0.0, 0.0, 0.0, 0.0, 0.0, 0.0, 0.0, 1.6154779165457036E9, 2021-03-11 16:51:56.545
88.0, 160075.046875, 187500.0, -22555.412109375, -14208.466796875, 26644.0390625, -24424.890625, -25390.619140625, -25883.6328125, -0.036000002175569534, 0.9380000233650208, 0.23000000417232513, 192.0, 0.0, 0.0, 0.0, 0.0, 0.0, 0.0, 0.0, 0.0, 0.0, 1.6154779165457065E9, 2021-03-11 16:51:56.545
89.0, 160026.1875, 187500.0, -16202.0859375, -14246.7783203125, 27089.732421875, -24457.92578125, -25450.09765625, -25924.37890625, -0.04000000283122063, 0.9340000152587891, 0.23000000417232513, 192.0, 254.0, 192.0, 29.0, 48.0, 7.0, 48.0, 0.0, 0.0, 0.0, 1.6154779165457096E9, 2021-03-11 16:51:56.545
90.0, 160122.859375, 187500.0, -18954.927734375, -14075.138671875, 24307.767578125, -24272.40625, -25353.60546875, -25769.861328125, -0.04000000283122063, 0.9340000152587891, 0.23000000417232513, 192.0, 0.0, 0.0, 0.0, 0.0, 0.0, 0.0, 0.0, 0.0, 0.0, 1.6154779165457125E9, 2021-03-11 16:51:56.545
91.0, 160214.59375, 187500.0, -26397.05078125, -13958.10546875, 22633.2421875, -24159.91015625, -25259.03515625, -25666.955078125, -0.04000000283122063, 0.9340000152587891, 0.23000000417232513, 192.0, 0.0, 0.0, 0.0, 0.0, 0.0, 0.0, 0.0, 0.0, 0.0, 1.615477916545715E9, 2021-03-11 16:51:56.545
92.0, 160176.421875, 187500.0, -28159.0625, -14041.1865234375, 24140.732421875, -24258.59375, -25286.4609375, -25740.044921875, -0.04000000283122063, 0.9340000152587891, 0.23000000417232513, 192.0, 0.0, 0.0, 0.0, 0.0, 0.0, 0.0, 0.0, 0.0, 0.0, 1.615477916545718E9, 2021-03-11 16:51:56.545
93.0, 160070.046875, 187500.0, -22401.185546875, -14196.1962890625, 26704.56640625, -24423.212890625, -25395.759765625, -25883.677734375, -0.04000000283122063, 0.9340000152587891, 0.23000000417232513, 192.0, 0.0, 0.0, 0.0, 0.0, 0.0, 0.0, 0.0, 0.0, 0.0, 1.6154779165457208E9, 2021-03-11 16:51:56.545
94.0, 160028.828125, 187500.0, -16095.3115234375, -14222.5712890625, 27123.125, -24444.828125, -25448.95703125, -25914.9921875, -0.04000000283122063, 0.9340000152587891, 0.23000000417232513, 192.0, 0.0, 0.0, 0.0, 0.0, 0.0, 0.0, 0.0, 0.0, 0.0, 1.615477916545724E9, 2021-03-11 16:51:56.545
95.0, 160126.28125, 187500.0, -18949.8984375, -14054.0166015625, 24342.501953125, -24259.21875, -25358.5234375, -25764.609375, -0.04000000283122063, 0.9340000152587891, 0.23000000417232513, 192.0, 0.0, 0.0, 0.0, 0.0, 0.0, 0.0, 0.0, 0.0, 0.0, 1.6154779165457265E9, 2021-03-11 16:51:56.545
96.0, 160214.640625, 187500.0, -26368.083984375, -13948.2705078125, 22746.095703125, -24157.25, -25261.337890625, -25666.41796875, -0.04000000283122063, 0.9340000152587891, 0.23000000417232513, 192.0, 0.0, 0.0, 0.0, 0.0, 0.0, 0.0, 0.0, 0.0, 0.0, 1.6154779165457296E9, 2021-03-11 16:51:56.545
97.0, 160172.796875, 187500.0, -28049.248046875, -14040.4716796875, 24307.833984375, -24262.080078125, -25294.73046875, -25744.357421875, -0.04000000283122063, 0.9340000152587891, 0.23000000417232513, 192.0, 0.0, 0.0, 0.0, 0.0, 0.0, 0.0, 0.0, 0.0, 0.0, 1.6154779165457327E9, 2021-03-11 16:51:56.545
98.0, 160069.6875, 187500.0, -22256.904296875, -14195.279296875, 26865.96875, -24428.421875, -25400.341796875, -25891.25390625, -0.04000000283122063, 0.9340000152587891, 0.23000000417232513, 192.0, 0.0, 0.0, 0.0, 0.0, 0.0, 0.0, 0.0, 0.0, 0.0, 1.615477916545736E9, 2021-03-11 16:51:56.545
99.0, 160024.0625, 187500.0, -15972.578125, -14227.8681640625, 27244.16015625, -24451.064453125, -25453.0703125, -25925.720703125, -0.052000001072883606, 0.9280000329017639, 0.242000013589859, 192.0, 254.0, 96.0, 29.0, 0.0, 7.0, 144.0, 0.0, 0.0, 0.0, 1.6154779165457416E9, 2021-03-11 16:51:56.545
100.0, 160123.0625, 187500.0, -18924.908203125, -14053.033203125, 24447.46484375, -24258.236328125, -25353.806640625, -25763.71484375, -0.052000001072883606, 0.9280000329017639, 0.242000013589859, 192.0, 0.0, 0.0, 0.0, 0.0, 0.0, 0.0, 0.0, 0.0, 0.0, 1.6154779165457444E9, 2021-03-11 16:51:56.545
101.0, 160213.234375, 187500.0, -26351.05078125, -13941.765625, 22852.37890625, -24152.646484375, -25257.4921875, -25661.5234375, -0.052000001072883606, 0.9280000329017639, 0.242000013589859, 192.0, 0.0, 0.0, 0.0, 0.0, 0.0, 0.0, 0.0, 0.0, 0.0, 1.6154779165457473E9, 2021-03-11 16:51:56.545
102.0, 160172.28125, 187500.0, -27982.974609375, -14034.7939453125, 24393.6640625, -24257.029296875, -25287.197265625, -25740.916015625, -0.052000001072883606, 0.9280000329017639, 0.242000013589859, 192.0, 0.0, 0.0, 0.0, 0.0, 0.0, 0.0, 0.0, 0.0, 0.0, 1.61547791654575E9, 2021-03-11 16:51:56.545
103.0, 160064.25, 187500.0, -22146.041015625, -14193.267578125, 26921.87109375, -24427.68359375, -25395.314453125, -25891.052734375, -0.052000001072883606, 0.9280000329017639, 0.242000013589859, 192.0, 0.0, 0.0, 0.0, 0.0, 0.0, 0.0, 0.0, 0.0, 0.0, 1.6154779165457523E9, 2021-03-11 16:51:56.545
104.0, 160025.765625, 187500.0, -15918.62109375, -14215.59765625, 27259.5390625, -24442.056640625, -25446.56640625, -25920.736328125, -0.052000001072883606, 0.9280000329017639, 0.242000013589859, 192.0, 0.0, 0.0, 0.0, 0.0, 0.0, 0.0, 0.0, 0.0, 0.0, 1.6154779165457551E9, 2021-03-11 16:51:56.545
105.0, 160116.84375, 187500.0, -18936.576171875, -14041.1865234375, 24458.193359375, -24248.04296875, -25350.408203125, -25759.1328125, -0.052000001072883606, 0.9280000329017639, 0.242000013589859, 192.0, 0.0, 0.0, 0.0, 0.0, 0.0, 0.0, 0.0, 0.0, 0.0, 1.615477916545758E9, 2021-03-11 16:51:56.545
