%OpenBCI Raw EEG Data
%Number of channels = 8
%Sample Rate = 250 Hz
%Board = OpenBCI_GUI$BoardCytonSerial
Sample Index, EXG Channel 0, EXG Channel 1, EXG Channel 2, EXG Channel 3, EXG Channel 4, EXG Channel 5, EXG Channel 6, EXG Channel 7, Accel Channel 0, Accel Channel 1, Accel Channel 2, Other, Other, Other, Other, Other, Other, Other, Analog Channel 0, Analog Channel 1, Analog Channel 2, Timestamp, Timestamp (Formatted)
190.0, 187500.0, 187500.0, -22131.333984375, -19766.65234375, 1986.01953125, -23310.3203125, 4828.2001953125, 7126.71923828125, 0.07600000500679016, 0.9240000247955322, 0.27000001072883606, 192.0, 2.0, 96.0, 28.0, 224.0, 8.0, 112.0, 0.0, 0.0, 0.0, 1.6154792686837966E9, 2021-03-11 17:14:28.683
191.0, 187500.0, 187500.0, -21482.015625, -19793.33984375, 1323.7149658203125, -23301.669921875, 5599.89404296875, 7783.83837890625, 0.07600000500679016, 0.9240000247955322, 0.27000001072883606, 192.0, 0.0, 0.0, 0.0, 0.0, 0.0, 0.0, 0.0, 0.0, 0.0, 1.615479268683992E9, 2021-03-11 17:14:28.683
192.0, 187500.0, 187500.0, -19423.75390625, -19834.35546875, 5550.67578125, -23312.064453125, 7129.35693359375, 9233.8857421875, 0.07600000500679016, 0.9240000247955322, 0.27000001072883606, 192.0, 0.0, 0.0, 0.0, 0.0, 0.0, 0.0, 0.0, 0.0, 0.0, 1.6154792686839952E9, 2021-03-11 17:14:28.683
193.0, 187500.0, 187500.0, -18603.04296875, -19857.490234375, 9335.25, -23350.642578125, 7382.3564453125, 9472.1767578125, 0.07600000500679016, 0.9240000247955322, 0.27000001072883606, 192.0, 0.0, 0.0, 0.0, 0.0, 0.0, 0.0, 0.0, 0.0, 0.0, 1.6154792686840076E9, 2021-03-11 17:14:28.684
194.0, 187500.0, 187500.0, -20495.69921875, -19807.376953125, 6696.224609375, -23339.265625, 5840.4658203125, 8124.88134765625, 0.07600000500679016, 0.9240000247955322, 0.27000001072883606, 192.0, 0.0, 0.0, 0.0, 0.0, 0.0, 0.0, 0.0, 0.0, 0.0, 1.6154792686840105E9, 2021-03-11 17:14:28.684
195.0, 187500.0, 187500.0, -22138.306640625, -19778.65625, 1910.5599365234375, -23324.982421875, 4818.90185546875, 7111.654296875, 0.07600000500679016, 0.9240000247955322, 0.27000001072883606, 192.0, 0.0, 0.0, 0.0, 0.0, 0.0, 0.0, 0.0, 0.0, 0.0, 1.6154792686840131E9, 2021-03-11 17:14:28.684
196.0, 187500.0, 187500.0, -21462.61328125, -19796.939453125, 1324.094970703125, -23309.337890625, 5614.51220703125, 7780.708984375, 0.07600000500679016, 0.9240000247955322, 0.27000001072883606, 192.0, 0.0, 0.0, 0.0, 0.0, 0.0, 0.0, 0.0, 0.0, 0.0, 1.615479268684016E9, 2021-03-11 17:14:28.684
197.0, 187500.0, 187500.0, -19383.455078125, -19839.384765625, 5622.46923828125, -23320.357421875, 7153.072265625, 9249.12890625, 0.07600000500679016, 0.9240000247955322, 0.27000001072883606, 192.0, 0.0, 0.0, 0.0, 0.0, 0.0, 0.0, 0.0, 0.0, 0.0, 1.6154792686840189E9, 2021-03-11 17:14:28.684
198.0, 187500.0, 187500.0, -18581.49609375, -19852.05859375, 9387.375, -23346.955078125, 7387.56396484375, 9483.0849609375, 0.07600000500679016, 0.9240000247955322, 0.27000001072883606, 192.0, 0.0, 0.0, 0.0, 0.0, 0.0, 0.0, 0.0, 0.0, 0.0, 1.6154792686840217E9, 2021-03-11 17:14:28.684
199.0, 187500.0, 187500.0, -20506.0703125, -19797.69921875, 6659.634765625, -23328.8046875, 5828.75341796875, 8121.23779296875, 0.07600000500679016, 0.9240000247955322, 0.27000001072883606, 192.0, 0.0, 0.0, 0.0, 0.0, 0.0, 0.0, 0.0, 0.0, 0.0, 1.6154792686840243E9, 2021-03-11 17:14:28.684
200.0, 187500.0, 187500.0, -22120.55859375, -19769.9375, 1910.0458984375, -23316.310546875, 4837.85595703125, 7131.8603515625, 0.07000000029802322, 0.9240000247955322, 0.27000001072883606, 192.0, 2.0, 48.0, 28.0, 224.0, 8.0, 112.0, 0.0, 0.0, 0.0, 1.6154792686840272E9, 2021-03-11 17:14:28.684
201.0, 187500.0, 187500.0, -21418.71484375, -19793.787109375, 1408.1822509765625, -23304.509765625, 5651.92919921875, 7823.24462890625, 0.07000000029802322, 0.9240000247955322, 0.27000001072883606, 192.0, 0.0, 0.0, 0.0, 0.0, 0.0, 0.0, 0.0, 0.0, 0.0, 1.61547926868403E9, 2021-03-11 17:14:28.684
202.0, 187500.0, 187500.0, -19367.294921875, -19839.05078125, 5707.5849609375, -23318.92578125, 7166.17041015625, 9261.7578125, 0.07000000029802322, 0.9240000247955322, 0.27000001072883606, 192.0, 0.0, 0.0, 0.0, 0.0, 0.0, 0.0, 0.0, 0.0, 0.0, 1.615479268684033E9, 2021-03-11 17:14:28.684
203.0, 187500.0, 187500.0, -18614.330078125, -19850.986328125, 9372.7119140625, -23348.54296875, 7365.525390625, 9461.470703125, 0.07000000029802322, 0.9240000247955322, 0.27000001072883606, 192.0, 0.0, 0.0, 0.0, 0.0, 0.0, 0.0, 0.0, 0.0, 0.0, 1.6154792686840355E9, 2021-03-11 17:14:28.684
204.0, 187500.0, 187500.0, -20554.931640625, -19808.0703125, 6562.67333984375, -23344.09375, 5795.22607421875, 8089.9677734375, 0.07000000029802322, 0.9240000247955322, 0.27000001072883606, 192.0, 0.0, 0.0, 0.0, 0.0, 0.0, 0.0, 0.0, 0.0, 0.0, 1.6154792686840382E9, 2021-03-11 17:14:28.684
205.0, 187500.0, 187500.0, -22152.298828125, -19787.775390625, 1826.9197998046875, -23336.62890625, 4817.06884765625, 7100.97021484375, 0.07000000029802322, 0.9240000247955322, 0.27000001072883606, 192.0, 0.0, 0.0, 0.0, 0.0, 0.0, 0.0, 0.0, 0.0, 0.0, 1.6154792686840408E9, 2021-03-11 17:14:28.684
206.0, 187500.0, 187500.0, -21415.25, -19802.21484375, 1404.1141357421875, -23312.48828125, 5666.3681640625, 7820.78564453125, 0.07000000029802322, 0.9240000247955322, 0.27000001072883606, 192.0, 0.0, 0.0, 0.0, 0.0, 0.0, 0.0, 0.0, 0.0, 0.0, 1.615479268684044E9, 2021-03-11 17:14:28.684
207.0, 187500.0, 187500.0, -19335.173828125, -19841.44140625, 5797.55078125, -23319.328125, 7198.8486328125, 9291.5751953125, 0.07000000029802322, 0.9240000247955322, 0.27000001072883606, 192.0, 0.0, 0.0, 0.0, 0.0, 0.0, 0.0, 0.0, 0.0, 0.0, 1.6154792686840465E9, 2021-03-11 17:14:28.684
208.0, 187500.0, 187500.0, -18639.41015625, -19851.0078125, 9390.302734375, -23349.16796875, 7353.34375, 9453.021484375, 0.07000000029802322, 0.9240000247955322, 0.27000001072883606, 192.0, 0.0, 0.0, 0.0, 0.0, 0.0, 0.0, 0.0, 0.0, 0.0, 1.6154792686840491E9, 2021-03-11 17:14:28.684
209.0, 187500.0, 187500.0, -20603.994140625, -19792.37890625, 6490.767578125, -23328.603515625, 5781.1220703125, 8074.5673828125, 0.07000000029802322, 0.9240000247955322, 0.27000001072883606, 192.0, 0.0, 0.0, 0.0, 0.0, 0.0, 0.0, 0.0, 0.0, 0.0, 1.6154792686840515E9, 2021-03-11 17:14:28.684
210.0, 187500.0, 187500.0, -22157.10546875, -19763.27734375, 1789.3240966796875, -23313.673828125, 4833.9892578125, 7126.607421875, 0.07800000160932541, 0.9180000424385071, 0.27400001883506775, 192.0, 2.0, 112.0, 28.0, 176.0, 8.0, 144.0, 0.0, 0.0, 0.0, 1.6154792686840541E9, 2021-03-11 17:14:28.684
211.0, 187500.0, 187500.0, -21373.20703125, -19785.8984375, 1471.5494384765625, -23296.171875, 5705.751953125, 7871.52392578125, 0.07800000160932541, 0.9180000424385071, 0.27400001883506775, 192.0, 0.0, 0.0, 0.0, 0.0, 0.0, 0.0, 0.0, 0.0, 0.0, 1.6154792686840568E9, 2021-03-11 17:14:28.684
212.0, 187500.0, 187500.0, -19314.90234375, -19833.484375, 5871.646484375, -23310.947265625, 7212.37109375, 9294.5478515625, 0.07800000160932541, 0.9180000424385071, 0.27400001883506775, 192.0, 0.0, 0.0, 0.0, 0.0, 0.0, 0.0, 0.0, 0.0, 0.0, 1.6154792686840594E9, 2021-03-11 17:14:28.684
213.0, 187500.0, 187500.0, -18662.900390625, -19842.873046875, 9361.603515625, -23338.3046875, 7346.34765625, 9431.8544921875, 0.07800000160932541, 0.9180000424385071, 0.27400001883506775, 192.0, 0.0, 0.0, 0.0, 0.0, 0.0, 0.0, 0.0, 0.0, 0.0, 1.6154792686840618E9, 2021-03-11 17:14:28.684
214.0, 187500.0, 187500.0, -20636.962890625, -19787.306640625, 6405.07080078125, -23320.982421875, 5776.5625, 8063.7939453125, 0.07800000160932541, 0.9180000424385071, 0.27400001883506775, 192.0, 0.0, 0.0, 0.0, 0.0, 0.0, 0.0, 0.0, 0.0, 0.0, 1.6154792686840646E9, 2021-03-11 17:14:28.684
215.0, 187500.0, 187500.0, -22160.279296875, -19770.02734375, 1742.474853515625, -23317.025390625, 4846.08154296875, 7129.53564453125, 0.07800000160932541, 0.9180000424385071, 0.27400001883506775, 192.0, 0.0, 0.0, 0.0, 0.0, 0.0, 0.0, 0.0, 0.0, 0.0, 1.6154792686840672E9, 2021-03-11 17:14:28.684
216.0, 187500.0, 187500.0, -21328.66015625, -19784.4453125, 1547.366455078125, -23295.12109375, 5753.7412109375, 7914.55126953125, 0.07800000160932541, 0.9180000424385071, 0.27400001883506775, 192.0, 0.0, 0.0, 0.0, 0.0, 0.0, 0.0, 0.0, 0.0, 0.0, 1.6154792686840718E9, 2021-03-11 17:14:28.684
217.0, 187500.0, 187500.0, -19276.345703125, -19812.115234375, 5984.634765625, -23296.23828125, 7252.42578125, 9325.21484375, 0.07800000160932541, 0.9180000424385071, 0.27400001883506775, 192.0, 0.0, 0.0, 0.0, 0.0, 0.0, 0.0, 0.0, 0.0, 0.0, 1.6154792686840744E9, 2021-03-11 17:14:28.684
218.0, 187500.0, 187500.0, -18680.984375, -19819.0, 9363.97265625, -23317.919921875, 7337.87646484375, 9418.0859375, 0.07800000160932541, 0.9180000424385071, 0.27400001883506775, 192.0, 0.0, 0.0, 0.0, 0.0, 0.0, 0.0, 0.0, 0.0, 0.0, 1.6154792686840773E9, 2021-03-11 17:14:28.684
219.0, 187500.0, 187500.0, -20670.4453125, -19780.869140625, 6317.89892578125, -23316.490234375, 5751.349609375, 8041.73291015625, 0.07800000160932541, 0.9180000424385071, 0.27400001883506775, 192.0, 0.0, 0.0, 0.0, 0.0, 0.0, 0.0, 0.0, 0.0, 0.0, 1.6154792686840796E9, 2021-03-11 17:14:28.684
220.0, 187500.0, 187500.0, -22176.103515625, -19762.451171875, 1670.211669921875, -23311.013671875, 4839.3984375, 7114.2919921875, 0.07800000160932541, 0.9220000505447388, 0.27400001883506775, 192.0, 2.0, 112.0, 28.0, 208.0, 8.0, 144.0, 0.0, 0.0, 0.0, 1.6154792686840825E9, 2021-03-11 17:14:28.684
221.0, 187500.0, 187500.0, -21311.5390625, -19783.751953125, 1555.7037353515625, -23294.294921875, 5763.03955078125, 7923.11181640625, 0.07800000160932541, 0.9220000505447388, 0.27400001883506775, 192.0, 0.0, 0.0, 0.0, 0.0, 0.0, 0.0, 0.0, 0.0, 0.0, 1.6154792686840851E9, 2021-03-11 17:14:28.684
222.0, 187500.0, 187500.0, -19254.373046875, -19831.025390625, 6044.3359375, -23312.779296875, 7250.48095703125, 9330.8251953125, 0.07800000160932541, 0.9220000505447388, 0.27400001883506775, 192.0, 0.0, 0.0, 0.0, 0.0, 0.0, 0.0, 0.0, 0.0, 0.0, 1.615479268684088E9, 2021-03-11 17:14:28.684
223.0, 187500.0, 187500.0, -18707.046875, -19831.16015625, 9349.041015625, -23336.337890625, 7296.65966796875, 9388.8271484375, 0.07800000160932541, 0.9220000505447388, 0.27400001883506775, 192.0, 0.0, 0.0, 0.0, 0.0, 0.0, 0.0, 0.0, 0.0, 0.0, 1.6154792686840906E9, 2021-03-11 17:14:28.684
224.0, 187500.0, 187500.0, -20721.8984375, -19772.84375, 6187.9013671875, -23315.484375, 5706.02001953125, 8003.46630859375, 0.07800000160932541, 0.9220000505447388, 0.27400001883506775, 192.0, 0.0, 0.0, 0.0, 0.0, 0.0, 0.0, 0.0, 0.0, 0.0, 1.6154792686840932E9, 2021-03-11 17:14:28.684
225.0, 187500.0, 187500.0, -22177.82421875, -19751.095703125, 1595.9368896484375, -23305.11328125, 4837.27490234375, 7118.76220703125, 0.07800000160932541, 0.9220000505447388, 0.27400001883506775, 192.0, 0.0, 0.0, 0.0, 0.0, 0.0, 0.0, 0.0, 0.0, 0.0, 1.615479268684096E9, 2021-03-11 17:14:28.684
226.0, 187500.0, 187500.0, -21285.140625, -19772.107421875, 1572.959228515625, -23286.962890625, 5784.65380859375, 7949.46484375, 0.07800000160932541, 0.9220000505447388, 0.27400001883506775, 192.0, 0.0, 0.0, 0.0, 0.0, 0.0, 0.0, 0.0, 0.0, 0.0, 1.6154792686840987E9, 2021-03-11 17:14:28.684
227.0, 187500.0, 187500.0, -19219.50390625, -19810.462890625, 6111.9951171875, -23300.552734375, 7273.3916015625, 9352.953125, 0.07800000160932541, 0.9220000505447388, 0.27400001883506775, 192.0, 0.0, 0.0, 0.0, 0.0, 0.0, 0.0, 0.0, 0.0, 0.0, 1.6154792686841016E9, 2021-03-11 17:14:28.684
228.0, 187500.0, 187500.0, -18701.837890625, -19813.279296875, 9365.8720703125, -23321.2734375, 7294.3125, 9390.50390625, 0.07800000160932541, 0.9220000505447388, 0.27400001883506775, 192.0, 0.0, 0.0, 0.0, 0.0, 0.0, 0.0, 0.0, 0.0, 0.0, 1.615479268684104E9, 2021-03-11 17:14:28.684
229.0, 187500.0, 187500.0, -20742.10546875, -19759.8359375, 6134.9052734375, -23302.876953125, 5691.3349609375, 7989.2060546875, 0.07800000160932541, 0.9260000586509705, 0.27000001072883606, 192.0, 2.0, 112.0, 28.0, 240.0, 8.0, 112.0, 0.0, 0.0, 0.0, 1.6154792686841068E9, 2021-03-11 17:14:28.684
230.0, 187500.0, 187500.0, -22175.322265625, -19749.240234375, 1574.1885986328125, -23304.46484375, 4836.939453125, 7119.94677734375, 0.07800000160932541, 0.9260000586509705, 0.27000001072883606, 192.0, 0.0, 0.0, 0.0, 0.0, 0.0, 0.0, 0.0, 0.0, 0.0, 1.61547926868411E9, 2021-03-11 17:14:28.684
231.0, 187500.0, 187500.0, -21257.291015625, -19777.224609375, 1631.945556640625, -23289.64453125, 5800.41162109375, 7974.96826171875, 0.07800000160932541, 0.9260000586509705, 0.27000001072883606, 192.0, 0.0, 0.0, 0.0, 0.0, 0.0, 0.0, 0.0, 0.0, 0.0, 1.6154792686841125E9, 2021-03-11 17:14:28.684
232.0, 187500.0, 187500.0, -19189.732421875, -19806.751953125, 6209.314453125, -23292.685546875, 7291.787109375, 9384.8046875, 0.07800000160932541, 0.9260000586509705, 0.27000001072883606, 192.0, 0.0, 0.0, 0.0, 0.0, 0.0, 0.0, 0.0, 0.0, 0.0, 1.6154792686841154E9, 2021-03-11 17:14:28.684
233.0, 187500.0, 187500.0, -18718.04296875, -19801.029296875, 9370.208984375, -23310.142578125, 7283.1591796875, 9392.8955078125, 0.07800000160932541, 0.9260000586509705, 0.27000001072883606, 192.0, 0.0, 0.0, 0.0, 0.0, 0.0, 0.0, 0.0, 0.0, 0.0, 1.6154792686841185E9, 2021-03-11 17:14:28.684
234.0, 187500.0, 187500.0, -20772.4140625, -19743.96484375, 6058.9990234375, -23289.599609375, 5679.8017578125, 7990.1669921875, 0.07800000160932541, 0.9260000586509705, 0.27000001072883606, 192.0, 0.0, 0.0, 0.0, 0.0, 0.0, 0.0, 0.0, 0.0, 0.0, 1.6154792686841211E9, 2021-03-11 17:14:28.684
235.0, 187500.0, 187500.0, -22172.7734375, -19726.46484375, 1540.9068603515625, -23285.263671875, 4858.77734375, 7149.16064453125, 0.07800000160932541, 0.9260000586509705, 0.27000001072883606, 192.0, 0.0, 0.0, 0.0, 0.0, 0.0, 0.0, 0.0, 0.0, 0.0, 1.6154792686841238E9, 2021-03-11 17:14:28.684
236.0, 187500.0, 187500.0, -21230.46875, -19751.140625, 1667.3507080078125, -23267.96484375, 5844.8466796875, 8014.4189453125, 0.07800000160932541, 0.9260000586509705, 0.27000001072883606, 192.0, 0.0, 0.0, 0.0, 0.0, 0.0, 0.0, 0.0, 0.0, 0.0, 1.615479268684127E9, 2021-03-11 17:14:28.684
237.0, 187500.0, 187500.0, -19174.935546875, -19807.154296875, 6266.55712890625, -23297.669921875, 7311.30029296875, 9398.6171875, 0.07800000160932541, 0.9260000586509705, 0.27000001072883606, 192.0, 0.0, 0.0, 0.0, 0.0, 0.0, 0.0, 0.0, 0.0, 0.0, 1.61547926868413E9, 2021-03-11 17:14:28.684
238.0, 187500.0, 187500.0, -18761.517578125, -19824.54296875, 9330.310546875, -23334.7734375, 7252.224609375, 9364.62109375, 0.07800000160932541, 0.9260000586509705, 0.27000001072883606, 192.0, 0.0, 0.0, 0.0, 0.0, 0.0, 0.0, 0.0, 0.0, 0.0, 1.6154792686841328E9, 2021-03-11 17:14:28.684
239.0, 187500.0, 187500.0, -20828.650390625, -19768.642578125, 5965.74755859375, -23317.451171875, 5645.1787109375, 7958.6513671875, 0.07800000160932541, 0.9240000247955322, 0.2720000147819519, 192.0, 2.0, 112.0, 28.0, 224.0, 8.0, 128.0, 0.0, 0.0, 0.0, 1.6154792686841357E9, 2021-03-11 17:14:28.684
240.0, 187500.0, 187500.0, -22187.81640625, -19743.2734375, 1499.109130859375, -23304.017578125, 4852.33984375, 7137.2021484375, 0.07800000160932541, 0.9240000247955322, 0.2720000147819519, 192.0, 0.0, 0.0, 0.0, 0.0, 0.0, 0.0, 0.0, 0.0, 0.0, 1.6154792686841397E9, 2021-03-11 17:14:28.684
241.0, 187500.0, 187500.0, -21196.5390625, -19765.892578125, 1751.974365234375, -23286.806640625, 5868.2265625, 8032.5458984375, 0.07800000160932541, 0.9240000247955322, 0.2720000147819519, 192.0, 0.0, 0.0, 0.0, 0.0, 0.0, 0.0, 0.0, 0.0, 0.0, 1.6154792686841426E9, 2021-03-11 17:14:28.684
242.0, 187500.0, 187500.0, -19146.638671875, -19806.037109375, 6382.56298828125, -23301.669921875, 7322.7216796875, 9401.634765625, 0.07800000160932541, 0.9240000247955322, 0.2720000147819519, 192.0, 0.0, 0.0, 0.0, 0.0, 0.0, 0.0, 0.0, 0.0, 0.0, 1.6154792686841452E9, 2021-03-11 17:14:28.684
243.0, 187500.0, 187500.0, -18787.22265625, -19803.421875, 9326.6669921875, -23321.943359375, 7229.7607421875, 9336.6142578125, 0.07800000160932541, 0.9240000247955322, 0.2720000147819519, 192.0, 0.0, 0.0, 0.0, 0.0, 0.0, 0.0, 0.0, 0.0, 0.0, 1.615479268684148E9, 2021-03-11 17:14:28.684
244.0, 187500.0, 187500.0, -20859.80859375, -19745.53125, 5880.4755859375, -23299.771484375, 5633.1533203125, 7946.8046875, 0.07800000160932541, 0.9240000247955322, 0.2720000147819519, 192.0, 0.0, 0.0, 0.0, 0.0, 0.0, 0.0, 0.0, 0.0, 0.0, 1.6154792686841507E9, 2021-03-11 17:14:28.684
245.0, 187500.0, 187500.0, -22185.89453125, -19728.677734375, 1449.5999755859375, -23291.27734375, 4866.68994140625, 7144.6455078125, 0.07800000160932541, 0.9240000247955322, 0.2720000147819519, 192.0, 0.0, 0.0, 0.0, 0.0, 0.0, 0.0, 0.0, 0.0, 0.0, 1.6154792686841533E9, 2021-03-11 17:14:28.684
246.0, 187500.0, 187500.0, -21159.748046875, -19763.27734375, 1789.81591796875, -23285.578125, 5902.447265625, 8063.27978515625, 0.07800000160932541, 0.9240000247955322, 0.2720000147819519, 192.0, 0.0, 0.0, 0.0, 0.0, 0.0, 0.0, 0.0, 0.0, 0.0, 1.615479268684156E9, 2021-03-11 17:14:28.684
247.0, 187500.0, 187500.0, -19107.857421875, -19811.958984375, 6466.49365234375, -23309.94140625, 7345.69921875, 9424.232421875, 0.07800000160932541, 0.9240000247955322, 0.2720000147819519, 192.0, 0.0, 0.0, 0.0, 0.0, 0.0, 0.0, 0.0, 0.0, 0.0, 1.6154792686841588E9, 2021-03-11 17:14:28.684
248.0, 187500.0, 187500.0, -18792.138671875, -19806.595703125, 9333.931640625, -23327.84375, 7218.33935546875, 9326.1533203125, 0.07800000160932541, 0.9240000247955322, 0.2720000147819519, 192.0, 0.0, 0.0, 0.0, 0.0, 0.0, 0.0, 0.0, 0.0, 0.0, 1.6154792686841617E9, 2021-03-11 17:14:28.684
249.0, 187500.0, 187500.0, -20902.58984375, -19745.888671875, 5777.59033203125, -23301.044921875, 5599.33544921875, 7903.666015625, 0.07600000500679016, 0.9260000586509705, 0.2720000147819519, 192.0, 2.0, 96.0, 28.0, 240.0, 8.0, 128.0, 0.0, 0.0, 0.0, 1.6154792686841643E9, 2021-03-11 17:14:28.684
250.0, 187500.0, 187500.0, -22186.251953125, -19731.806640625, 1403.48828125, -23294.00390625, 4869.08154296875, 7139.236328125, 0.07600000500679016, 0.9260000586509705, 0.2720000147819519, 192.0, 0.0, 0.0, 0.0, 0.0, 0.0, 0.0, 0.0, 0.0, 0.0, 1.6154792686841671E9, 2021-03-11 17:14:28.684
251.0, 187500.0, 187500.0, -21145.375, -19762.271484375, 1814.536865234375, -23282.291015625, 5914.38330078125, 8072.98046875, 0.07600000500679016, 0.9260000586509705, 0.2720000147819519, 192.0, 0.0, 0.0, 0.0, 0.0, 0.0, 0.0, 0.0, 0.0, 0.0, 1.6154792686841695E9, 2021-03-11 17:14:28.684
252.0, 187500.0, 187500.0, -19087.71875, -19812.83203125, 6529.07861328125, -23309.716796875, 7352.1142578125, 9433.0166015625, 0.07600000500679016, 0.9260000586509705, 0.2720000147819519, 192.0, 0.0, 0.0, 0.0, 0.0, 0.0, 0.0, 0.0, 0.0, 0.0, 1.6154792686841724E9, 2021-03-11 17:14:28.684
253.0, 187500.0, 187500.0, -18797.279296875, -19809.322265625, 9353.51171875, -23331.77734375, 7200.5693359375, 9319.42578125, 0.07600000500679016, 0.9260000586509705, 0.2720000147819519, 192.0, 0.0, 0.0, 0.0, 0.0, 0.0, 0.0, 0.0, 0.0, 0.0, 1.6154792686841753E9, 2021-03-11 17:14:28.684
254.0, 187500.0, 187500.0, -20926.193359375, -19747.05078125, 5733.80322265625, -23307.99609375, 5576.201171875, 7884.0859375, 0.07600000500679016, 0.9260000586509705, 0.2720000147819519, 192.0, 0.0, 0.0, 0.0, 0.0, 0.0, 0.0, 0.0, 0.0, 0.0, 1.615479268684178E9, 2021-03-11 17:14:28.684
255.0, 187500.0, 187500.0, -22184.8203125, -19723.78125, 1387.4398193359375, -23295.12109375, 4867.4052734375, 7128.8876953125, 0.07600000500679016, 0.9260000586509705, 0.2720000147819519, 192.0, 0.0, 0.0, 0.0, 0.0, 0.0, 0.0, 0.0, 0.0, 0.0, 1.6154792686841807E9, 2021-03-11 17:14:28.684
0.0, 187500.0, 187500.0, -21100.962890625, -19753.666015625, 1887.9400634765625, -23282.0, 5942.009765625, 8092.5380859375, 0.07600000500679016, 0.9260000586509705, 0.2720000147819519, 192.0, 0.0, 0.0, 0.0, 0.0, 0.0, 0.0, 0.0, 0.0, 0.0, 1.6154792686841834E9, 2021-03-11 17:14:28.684
1.0, 187500.0, 187500.0, -19048.423828125, -19801.56640625, 6632.90234375, -23308.30859375, 7373.01318359375, 9445.3994140625, 0.07600000500679016, 0.9260000586509705, 0.2720000147819519, 192.0, 0.0, 0.0, 0.0, 0.0, 0.0, 0.0, 0.0, 0.0, 0.0, 1.6154792686841865E9, 2021-03-11 17:14:28.684
2.0, 187500.0, 187500.0, -18820.705078125, -19802.392578125, 9335.630859375, -23334.482421875, 7181.12353515625, 9297.23046875, 0.07600000500679016, 0.9260000586509705, 0.2720000147819519, 192.0, 0.0, 0.0, 0.0, 0.0, 0.0, 0.0, 0.0, 0.0, 0.0, 1.615479268684189E9, 2021-03-11 17:14:28.684
3.0, 187500.0, 187500.0, -20966.248046875, -19736.90234375, 5641.021484375, -23304.84375, 5556.978515625, 7864.8857421875, 0.07000000029802322, 0.9200000166893005, 0.2760000228881836, 192.0, 2.0, 48.0, 28.0, 192.0, 8.0, 160.0, 0.0, 0.0, 0.0, 1.6154792686841917E9, 2021-03-11 17:14:28.684
4.0, 187500.0, 187500.0, -22196.66796875, -19711.01953125, 1326.1737060546875, -23287.142578125, 4877.552734375, 7140.33154296875, 0.07000000029802322, 0.9200000166893005, 0.2760000228881836, 192.0, 0.0, 0.0, 0.0, 0.0, 0.0, 0.0, 0.0, 0.0, 0.0, 1.6154792686841943E9, 2021-03-11 17:14:28.684
5.0, 187500.0, 187500.0, -21072.375, -19744.32421875, 1929.8719482421875, -23276.525390625, 5977.50439453125, 8140.79541015625, 0.07000000029802322, 0.9200000166893005, 0.2760000228881836, 192.0, 0.0, 0.0, 0.0, 0.0, 0.0, 0.0, 0.0, 0.0, 0.0, 1.6154792686841974E9, 2021-03-11 17:14:28.684
6.0, 187500.0, 187500.0, -19038.298828125, -19789.7421875, 6682.18798828125, -23300.552734375, 7388.16748046875, 9470.478515625, 0.07000000029802322, 0.9200000166893005, 0.2760000228881836, 192.0, 0.0, 0.0, 0.0, 0.0, 0.0, 0.0, 0.0, 0.0, 0.0, 1.6154792686842003E9, 2021-03-11 17:14:28.684
7.0, 187500.0, 187500.0, -18854.947265625, -19793.162109375, 9291.7314453125, -23332.962890625, 7158.212890625, 9292.9609375, 0.07000000029802322, 0.9200000166893005, 0.2760000228881836, 192.0, 0.0, 0.0, 0.0, 0.0, 0.0, 0.0, 0.0, 0.0, 0.0, 1.6154792686842043E9, 2021-03-11 17:14:28.684
8.0, 187500.0, 187500.0, -21005.20703125, -19732.029296875, 5537.48779296875, -23311.013671875, 5528.6591796875, 7857.2861328125, 0.07000000029802322, 0.9200000166893005, 0.2760000228881836, 192.0, 0.0, 0.0, 0.0, 0.0, 0.0, 0.0, 0.0, 0.0, 0.0, 1.6154792686842072E9, 2021-03-11 17:14:28.684
9.0, 187500.0, 187500.0, -22191.125, -19708.29296875, 1286.8345947265625, -23288.662109375, 4879.1396484375, 7160.2021484375, 0.07000000029802322, 0.9200000166893005, 0.2760000228881836, 192.0, 0.0, 0.0, 0.0, 0.0, 0.0, 0.0, 0.0, 0.0, 0.0, 1.61547926868421E9, 2021-03-11 17:14:28.684
10.0, 187500.0, 187500.0, -21027.0, -19733.392578125, 1989.8863525390625, -23267.583984375, 6008.39453125, 8180.82763671875, 0.07000000029802322, 0.9200000166893005, 0.2760000228881836, 192.0, 0.0, 0.0, 0.0, 0.0, 0.0, 0.0, 0.0, 0.0, 0.0, 1.6154792686842127E9, 2021-03-11 17:14:28.684
11.0, 187500.0, 187500.0, -18985.81640625, -19779.662109375, 6783.798828125, -23293.333984375, 7407.14453125, 9499.55859375, 0.07000000029802322, 0.9200000166893005, 0.2760000228881836, 192.0, 0.0, 0.0, 0.0, 0.0, 0.0, 0.0, 0.0, 0.0, 0.0, 1.6154792686842153E9, 2021-03-11 17:14:28.684
12.0, 187500.0, 187500.0, -18867.15234375, -19785.94140625, 9272.9111328125, -23327.419921875, 7127.16650390625, 9263.6357421875, 0.07000000029802322, 0.9200000166893005, 0.2760000228881836, 192.0, 0.0, 0.0, 0.0, 0.0, 0.0, 0.0, 0.0, 0.0, 0.0, 1.615479268684218E9, 2021-03-11 17:14:28.684
13.0, 187500.0, 187500.0, -21021.8828125, -19738.736328125, 5463.97314453125, -23318.791015625, 5500.2724609375, 7828.2958984375, 0.06800000369548798, 0.9280000329017639, 0.27800002694129944, 192.0, 2.0, 32.0, 29.0, 0.0, 8.0, 176.0, 0.0, 0.0, 0.0, 1.6154792686842208E9, 2021-03-11 17:14:28.684
14.0, 187500.0, 187500.0, -22175.25390625, -19723.759765625, 1273.9822998046875, -23310.052734375, 4873.1943359375, 7150.94873046875, 0.06800000369548798, 0.9280000329017639, 0.27800002694129944, 192.0, 0.0, 0.0, 0.0, 0.0, 0.0, 0.0, 0.0, 0.0, 0.0, 1.6154792686842237E9, 2021-03-11 17:14:28.684
15.0, 187500.0, 187500.0, -21000.736328125, -19746.513671875, 2048.224365234375, -23289.109375, 6011.5908203125, 8175.01611328125, 0.06800000369548798, 0.9280000329017639, 0.27800002694129944, 192.0, 0.0, 0.0, 0.0, 0.0, 0.0, 0.0, 0.0, 0.0, 0.0, 1.6154792686842265E9, 2021-03-11 17:14:28.684
16.0, 187500.0, 187500.0, -18966.236328125, -19779.37109375, 6860.0185546875, -23304.912109375, 7410.16162109375, 9496.33984375, 0.06800000369548798, 0.9280000329017639, 0.27800002694129944, 192.0, 0.0, 0.0, 0.0, 0.0, 0.0, 0.0, 0.0, 0.0, 0.0, 1.6154792686842291E9, 2021-03-11 17:14:28.684
17.0, 187500.0, 187500.0, -18881.658203125, -19777.359375, 9265.46875, -23334.9296875, 7112.056640625, 9254.001953125, 0.06800000369548798, 0.9280000329017639, 0.27800002694129944, 192.0, 0.0, 0.0, 0.0, 0.0, 0.0, 0.0, 0.0, 0.0, 0.0, 1.615479268684232E9, 2021-03-11 17:14:28.684
18.0, 187500.0, 187500.0, -21041.23828125, -19725.615234375, 5402.55078125, -23318.43359375, 5486.2802734375, 7821.5234375, 0.06800000369548798, 0.9280000329017639, 0.27800002694129944, 192.0, 0.0, 0.0, 0.0, 0.0, 0.0, 0.0, 0.0, 0.0, 0.0, 1.6154792686842346E9, 2021-03-11 17:14:28.684
19.0, 187500.0, 187500.0, -22166.73828125, -19709.25390625, 1254.513916015625, -23301.513671875, 4886.9404296875, 7162.37060546875, 0.06800000369548798, 0.9280000329017639, 0.27800002694129944, 192.0, 0.0, 0.0, 0.0, 0.0, 0.0, 0.0, 0.0, 0.0, 0.0, 1.6154792686842372E9, 2021-03-11 17:14:28.684
20.0, 187500.0, 187500.0, -20964.638671875, -19734.689453125, 2114.407958984375, -23280.146484375, 6045.67724609375, 8212.208984375, 0.06800000369548798, 0.9280000329017639, 0.27800002694129944, 192.0, 0.0, 0.0, 0.0, 0.0, 0.0, 0.0, 0.0, 0.0, 0.0, 1.61547926868424E9, 2021-03-11 17:14:28.684
21.0, 187500.0, 187500.0, -18954.2109375, -19782.56640625, 6930.560546875, -23308.15234375, 7424.19873046875, 9503.4697265625, 0.06800000369548798, 0.9280000329017639, 0.27800002694129944, 192.0, 0.0, 0.0, 0.0, 0.0, 0.0, 0.0, 0.0, 0.0, 0.0, 1.615479268684243E9, 2021-03-11 17:14:28.684
22.0, 187500.0, 187500.0, -18915.810546875, -19781.986328125, 9241.2841796875, -23332.248046875, 7091.671875, 9228.1181640625, 0.06800000369548798, 0.9280000329017639, 0.27800002694129944, 192.0, 0.0, 0.0, 0.0, 0.0, 0.0, 0.0, 0.0, 0.0, 0.0, 1.6154792686842456E9, 2021-03-11 17:14:28.684
23.0, 187500.0, 187500.0, -21087.060546875, -19718.283203125, 5301.140625, -23305.40234375, 5473.0703125, 7791.97412109375, 0.06200000271201134, 0.9200000166893005, 0.2840000092983246, 192.0, 1.0, 240.0, 28.0, 192.0, 8.0, 224.0, 0.0, 0.0, 0.0, 1.6154792686842484E9, 2021-03-11 17:14:28.684
24.0, 187500.0, 187500.0, -22164.525390625, -19700.73828125, 1211.6656494140625, -23295.8359375, 4910.20849609375, 7164.404296875, 0.06200000271201134, 0.9200000166893005, 0.2840000092983246, 192.0, 0.0, 0.0, 0.0, 0.0, 0.0, 0.0, 0.0, 0.0, 0.0, 1.6154792686842513E9, 2021-03-11 17:14:28.684
25.0, 187500.0, 187500.0, -20940.833984375, -19743.98828125, 2151.1318359375, -23295.345703125, 6073.21484375, 8221.3291015625, 0.06200000271201134, 0.9200000166893005, 0.2840000092983246, 192.0, 0.0, 0.0, 0.0, 0.0, 0.0, 0.0, 0.0, 0.0, 0.0, 1.6154792686842542E9, 2021-03-11 17:14:28.684
26.0, 187500.0, 187500.0, -18937.11328125, -19796.4921875, 6999.26953125, -23326.4140625, 7434.5029296875, 9505.16796875, 0.06200000271201134, 0.9200000166893005, 0.2840000092983246, 192.0, 0.0, 0.0, 0.0, 0.0, 0.0, 0.0, 0.0, 0.0, 0.0, 1.6154792686842568E9, 2021-03-11 17:14:28.684
27.0, 187500.0, 187500.0, -18936.77734375, -19785.8984375, 9228.7216796875, -23342.9765625, 7075.4892578125, 9213.5673828125, 0.06200000271201134, 0.9200000166893005, 0.2840000092983246, 192.0, 0.0, 0.0, 0.0, 0.0, 0.0, 0.0, 0.0, 0.0, 0.0, 1.6154792686842597E9, 2021-03-11 17:14:28.684
28.0, 187500.0, 187500.0, -21113.435546875, -19723.8046875, 5234.04052734375, -23319.037109375, 5445.7119140625, 7775.18798828125, 0.06200000271201134, 0.9200000166893005, 0.2840000092983246, 192.0, 0.0, 0.0, 0.0, 0.0, 0.0, 0.0, 0.0, 0.0, 0.0, 1.6154792686842625E9, 2021-03-11 17:14:28.684
29.0, 187500.0, 187500.0, -22163.162109375, -19711.3984375, 1186.967041015625, -23306.140625, 4900.3291015625, 7169.232421875, 0.06200000271201134, 0.9200000166893005, 0.2840000092983246, 192.0, 0.0, 0.0, 0.0, 0.0, 0.0, 0.0, 0.0, 0.0, 0.0, 1.615479268684265E9, 2021-03-11 17:14:28.684
30.0, 187500.0, 187500.0, -20898.701171875, -19749.53125, 2232.514404296875, -23293.376953125, 6094.22509765625, 8263.1044921875, 0.06200000271201134, 0.9200000166893005, 0.2840000092983246, 192.0, 0.0, 0.0, 0.0, 0.0, 0.0, 0.0, 0.0, 0.0, 0.0, 1.6154792686842692E9, 2021-03-11 17:14:28.684
31.0, 187500.0, 187500.0, -18907.18359375, -19795.419921875, 7101.59619140625, -23318.814453125, 7444.8740234375, 9523.720703125, 0.06200000271201134, 0.9200000166893005, 0.2840000092983246, 192.0, 0.0, 0.0, 0.0, 0.0, 0.0, 0.0, 0.0, 0.0, 0.0, 1.6154792686842716E9, 2021-03-11 17:14:28.684
32.0, 187500.0, 187500.0, -18964.515625, -19783.349609375, 9215.84765625, -23333.431640625, 7051.3271484375, 9192.51171875, 0.06200000271201134, 0.9200000166893005, 0.2840000092983246, 192.0, 0.0, 0.0, 0.0, 0.0, 0.0, 0.0, 0.0, 0.0, 0.0, 1.6154792686842744E9, 2021-03-11 17:14:28.684
33.0, 187500.0, 187500.0, -21147.833984375, -19722.12890625, 5166.806640625, -23305.58203125, 5427.31640625, 7757.9775390625, 0.06400000303983688, 0.9080000519752502, 0.27800002694129944, 192.0, 2.0, 0.0, 28.0, 96.0, 8.0, 176.0, 0.0, 0.0, 0.0, 1.6154792686842773E9, 2021-03-11 17:14:28.684
34.0, 187500.0, 187500.0, -22172.794921875, -19707.533203125, 1149.5948486328125, -23290.337890625, 4906.69970703125, 7165.32080078125, 0.06400000303983688, 0.9080000519752502, 0.27800002694129944, 192.0, 0.0, 0.0, 0.0, 0.0, 0.0, 0.0, 0.0, 0.0, 0.0, 1.61547926868428E9, 2021-03-11 17:14:28.684
35.0, 187500.0, 187500.0, -20864.435546875, -19743.4296875, 2299.413330078125, -23278.4921875, 6134.9501953125, 8296.296875, 0.06400000303983688, 0.9080000519752502, 0.27800002694129944, 192.0, 0.0, 0.0, 0.0, 0.0, 0.0, 0.0, 0.0, 0.0, 0.0, 1.6154792686842823E9, 2021-03-11 17:14:28.684
36.0, 187500.0, 187500.0, -18881.345703125, -19795.419921875, 7192.4111328125, -23311.1484375, 7464.94580078125, 9543.4794921875, 0.06400000303983688, 0.9080000519752502, 0.27800002694129944, 192.0, 0.0, 0.0, 0.0, 0.0, 0.0, 0.0, 0.0, 0.0, 0.0, 1.6154792686842852E9, 2021-03-11 17:14:28.684
37.0, 187500.0, 187500.0, -19001.083984375, -19781.650390625, 9174.630859375, -23326.994140625, 7024.39306640625, 9158.3583984375, 0.06400000303983688, 0.9080000519752502, 0.27800002694129944, 192.0, 0.0, 0.0, 0.0, 0.0, 0.0, 0.0, 0.0, 0.0, 0.0, 1.6154792686842878E9, 2021-03-11 17:14:28.684
38.0, 187500.0, 187500.0, -21192.962890625, -19723.044921875, 5059.2724609375, -23306.07421875, 5406.5068359375, 7717.63232421875, 0.06400000303983688, 0.9080000519752502, 0.27800002694129944, 192.0, 0.0, 0.0, 0.0, 0.0, 0.0, 0.0, 0.0, 0.0, 0.0, 1.6154792686842904E9, 2021-03-11 17:14:28.684
39.0, 187500.0, 187500.0, -22182.541015625, -19712.62890625, 1100.8233642578125, -23299.189453125, 4913.7626953125, 7151.52978515625, 0.06400000303983688, 0.9080000519752502, 0.27800002694129944, 192.0, 0.0, 0.0, 0.0, 0.0, 0.0, 0.0, 0.0, 0.0, 0.0, 1.615479268684293E9, 2021-03-11 17:14:28.684
40.0, 187500.0, 187500.0, -20844.609375, -19742.6015625, 2341.479248046875, -23288.21484375, 6153.748046875, 8295.1123046875, 0.06400000303983688, 0.9080000519752502, 0.27800002694129944, 192.0, 0.0, 0.0, 0.0, 0.0, 0.0, 0.0, 0.0, 0.0, 0.0, 1.615479268684296E9, 2021-03-11 17:14:28.684
41.0, 187500.0, 187500.0, -18869.498046875, -19782.74609375, 7238.142578125, -23315.439453125, 7467.33740234375, 9535.2763671875, 0.06400000303983688, 0.9080000519752502, 0.27800002694129944, 192.0, 0.0, 0.0, 0.0, 0.0, 0.0, 0.0, 0.0, 0.0, 0.0, 1.6154792686842985E9, 2021-03-11 17:14:28.684
42.0, 187500.0, 187500.0, -19022.4296875, -19768.642578125, 9133.2353515625, -23331.890625, 6994.2626953125, 9146.9814453125, 0.06400000303983688, 0.9080000519752502, 0.27800002694129944, 192.0, 0.0, 0.0, 0.0, 0.0, 0.0, 0.0, 0.0, 0.0, 0.0, 1.615479268684301E9, 2021-03-11 17:14:28.684
43.0, 187500.0, 187500.0, -21215.08984375, -19708.806640625, 4977.62158203125, -23308.935546875, 5378.79052734375, 7714.3466796875, 0.06800000369548798, 0.906000018119812, 0.2720000147819519, 192.0, 2.0, 32.0, 28.0, 80.0, 8.0, 128.0, 0.0, 0.0, 0.0, 1.6154792686843035E9, 2021-03-11 17:14:28.684
44.0, 187500.0, 187500.0, -22172.103515625, -19697.18359375, 1077.219970703125, -23304.15234375, 4911.7958984375, 7173.07666015625, 0.06800000369548798, 0.906000018119812, 0.2720000147819519, 192.0, 0.0, 0.0, 0.0, 0.0, 0.0, 0.0, 0.0, 0.0, 0.0, 1.6154792686843064E9, 2021-03-11 17:14:28.684
45.0, 187500.0, 187500.0, -20814.32421875, -19718.619140625, 2382.271240234375, -23281.375, 6173.66357421875, 8328.169921875, 0.06800000369548798, 0.906000018119812, 0.2720000147819519, 192.0, 0.0, 0.0, 0.0, 0.0, 0.0, 0.0, 0.0, 0.0, 0.0, 1.6154792686843092E9, 2021-03-11 17:14:28.684
46.0, 187500.0, 187500.0, -18833.4453125, -19746.849609375, 7308.7294921875, -23294.78515625, 7493.109375, 9566.76953125, 0.06800000369548798, 0.906000018119812, 0.2720000147819519, 192.0, 0.0, 0.0, 0.0, 0.0, 0.0, 0.0, 0.0, 0.0, 0.0, 1.6154792686843119E9, 2021-03-11 17:14:28.684
47.0, 187500.0, 187500.0, -19034.09765625, -19750.134765625, 9107.12890625, -23327.8671875, 6985.45654296875, 9140.4326171875, 0.06800000369548798, 0.906000018119812, 0.2720000147819519, 192.0, 0.0, 0.0, 0.0, 0.0, 0.0, 0.0, 0.0, 0.0, 0.0, 1.6154792686843145E9, 2021-03-11 17:14:28.684
48.0, 187500.0, 187500.0, -21243.6328125, -19712.091796875, 4893.556640625, -23321.607421875, 5359.25537109375, 7693.82763671875, 0.06800000369548798, 0.906000018119812, 0.2720000147819519, 192.0, 0.0, 0.0, 0.0, 0.0, 0.0, 0.0, 0.0, 0.0, 0.0, 1.615479268684317E9, 2021-03-11 17:14:28.684
49.0, 187500.0, 187500.0, -22176.529296875, -19698.814453125, 1024.1568603515625, -23308.263671875, 4916.22119140625, 7170.796875, 0.06800000369548798, 0.906000018119812, 0.2720000147819519, 192.0, 0.0, 0.0, 0.0, 0.0, 0.0, 0.0, 0.0, 0.0, 0.0, 1.61547926868432E9, 2021-03-11 17:14:28.684
50.0, 187500.0, 187500.0, -20784.349609375, -19731.0234375, 2403.460693359375, -23290.44921875, 6191.298828125, 8352.220703125, 0.06800000369548798, 0.906000018119812, 0.2720000147819519, 192.0, 0.0, 0.0, 0.0, 0.0, 0.0, 0.0, 0.0, 0.0, 0.0, 1.6154792686843226E9, 2021-03-11 17:14:28.684
51.0, 187500.0, 187500.0, -18794.978515625, -19772.75390625, 7385.82080078125, -23315.796875, 7498.8759765625, 9585.2998046875, 0.06800000369548798, 0.906000018119812, 0.2720000147819519, 192.0, 0.0, 0.0, 0.0, 0.0, 0.0, 0.0, 0.0, 0.0, 0.0, 1.6154792686843252E9, 2021-03-11 17:14:28.684
52.0, 187500.0, 187500.0, -19050.390625, -19771.7265625, 9094.767578125, -23344.361328125, 6954.47705078125, 9126.373046875, 0.06800000369548798, 0.906000018119812, 0.2720000147819519, 192.0, 0.0, 0.0, 0.0, 0.0, 0.0, 0.0, 0.0, 0.0, 0.0, 1.615479268684328E9, 2021-03-11 17:14:28.684
53.0, 187500.0, 187500.0, -21277.65234375, -19722.84375, 4803.70263671875, -23327.7109375, 5326.62158203125, 7667.02783203125, 0.07200000435113907, 0.9320000410079956, 0.26600000262260437, 192.0, 2.0, 64.0, 29.0, 32.0, 8.0, 80.0, 0.0, 0.0, 0.0, 1.6154792686843321E9, 2021-03-11 17:14:28.684
54.0, 187500.0, 187500.0, -22154.646484375, -19704.314453125, 1013.2045288085938, -23301.849609375, 4924.60302734375, 7182.419921875, 0.07200000435113907, 0.9320000410079956, 0.26600000262260437, 192.0, 0.0, 0.0, 0.0, 0.0, 0.0, 0.0, 0.0, 0.0, 0.0, 1.6154792691647944E9, 2021-03-11 17:14:29.164
55.0, 187500.0, 187500.0, -20732.671875, -19728.966796875, 2489.134765625, -23277.75390625, 6214.76806640625, 8372.76171875, 0.07200000435113907, 0.9320000410079956, 0.26600000262260437, 192.0, 0.0, 0.0, 0.0, 0.0, 0.0, 0.0, 0.0, 0.0, 0.0, 1.6154792691648104E9, 2021-03-11 17:14:29.164
56.0, 187500.0, 187500.0, -18761.986328125, -19764.8203125, 7481.0390625, -23299.033203125, 7505.0673828125, 9583.712890625, 0.07200000435113907, 0.9320000410079956, 0.26600000262260437, 192.0, 0.0, 0.0, 0.0, 0.0, 0.0, 0.0, 0.0, 0.0, 0.0, 1.6154792691648335E9, 2021-03-11 17:14:29.164
57.0, 187500.0, 187500.0, -19068.49609375, -19755.56640625, 9074.427734375, -23321.853515625, 6926.537109375, 9099.4169921875, 0.07200000435113907, 0.9320000410079956, 0.26600000262260437, 192.0, 0.0, 0.0, 0.0, 0.0, 0.0, 0.0, 0.0, 0.0, 0.0, 1.6154792691648445E9, 2021-03-11 17:14:29.164
58.0, 187500.0, 187500.0, -21286.572265625, -19709.677734375, 4744.6044921875, -23305.828125, 5313.3896484375, 7664.94921875, 0.07200000435113907, 0.9320000410079956, 0.26600000262260437, 192.0, 0.0, 0.0, 0.0, 0.0, 0.0, 0.0, 0.0, 0.0, 0.0, 1.615479269164863E9, 2021-03-11 17:14:29.164
59.0, 187500.0, 187500.0, -22138.12890625, -19707.95703125, 1002.9898071289062, -23297.46875, 4930.48193359375, 7198.08837890625, 0.07200000435113907, 0.9320000410079956, 0.26600000262260437, 192.0, 0.0, 0.0, 0.0, 0.0, 0.0, 0.0, 0.0, 0.0, 0.0, 1.615479269164874E9, 2021-03-11 17:14:29.164
60.0, 187500.0, 187500.0, -20698.876953125, -19752.66015625, 2555.161865234375, -23290.896484375, 6231.6435546875, 8395.650390625, 0.07200000435113907, 0.9320000410079956, 0.26600000262260437, 192.0, 0.0, 0.0, 0.0, 0.0, 0.0, 0.0, 0.0, 0.0, 0.0, 1.615479269164885E9, 2021-03-11 17:14:29.164
61.0, 187500.0, 187500.0, -18749.134765625, -19799.46484375, 7560.49951171875, -23321.51953125, 7498.4736328125, 9574.97265625, 0.07200000435113907, 0.9320000410079956, 0.26600000262260437, 192.0, 0.0, 0.0, 0.0, 0.0, 0.0, 0.0, 0.0, 0.0, 0.0, 1.615479269164896E9, 2021-03-11 17:14:29.164
62.0, 187500.0, 187500.0, -19120.44140625, -19785.271484375, 9021.923828125, -23335.265625, 6884.47119140625, 9052.12109375, 0.07200000435113907, 0.9320000410079956, 0.26600000262260437, 192.0, 0.0, 0.0, 0.0, 0.0, 0.0, 0.0, 0.0, 0.0, 0.0, 1.6154792691649067E9, 2021-03-11 17:14:29.164
63.0, 187500.0, 187500.0, -21332.01171875, -19734.890625, 4654.14697265625, -23314.8359375, 5292.53515625, 7637.45654296875, 0.0560000017285347, 0.9200000166893005, 0.2639999985694885, 192.0, 1.0, 192.0, 28.0, 192.0, 8.0, 64.0, 0.0, 0.0, 0.0, 1.6154792691649203E9, 2021-03-11 17:14:29.164
64.0, 187500.0, 187500.0, -22143.1796875, -19721.837890625, 973.6866455078125, -23299.0546875, 4949.41357421875, 7205.88916015625, 0.0560000017285347, 0.9200000166893005, 0.2639999985694885, 192.0, 0.0, 0.0, 0.0, 0.0, 0.0, 0.0, 0.0, 0.0, 0.0, 1.6154792691649313E9, 2021-03-11 17:14:29.164
65.0, 187500.0, 187500.0, -20658.7109375, -19758.29296875, 2645.753662109375, -23285.77734375, 6274.93896484375, 8438.587890625, 0.0560000017285347, 0.9200000166893005, 0.2639999985694885, 192.0, 0.0, 0.0, 0.0, 0.0, 0.0, 0.0, 0.0, 0.0, 0.0, 1.61547926916494E9, 2021-03-11 17:14:29.164
66.0, 187500.0, 187500.0, -18722.40234375, -19804.494140625, 7660.63525390625, -23316.087890625, 7518.27734375, 9596.095703125, 0.0560000017285347, 0.9200000166893005, 0.2639999985694885, 192.0, 0.0, 0.0, 0.0, 0.0, 0.0, 0.0, 0.0, 0.0, 0.0, 1.6154792691649585E9, 2021-03-11 17:14:29.164
67.0, 187500.0, 187500.0, -19141.20703125, -19786.970703125, 9017.095703125, -23333.4765625, 6870.68017578125, 9035.87109375, 0.0560000017285347, 0.9200000166893005, 0.2639999985694885, 192.0, 0.0, 0.0, 0.0, 0.0, 0.0, 0.0, 0.0, 0.0, 0.0, 1.6154792691649609E9, 2021-03-11 17:14:29.164
68.0, 187500.0, 187500.0, -21370.546875, -19725.951171875, 4570.37255859375, -23307.056640625, 5277.11279296875, 7597.0, 0.0560000017285347, 0.9200000166893005, 0.2639999985694885, 192.0, 0.0, 0.0, 0.0, 0.0, 0.0, 0.0, 0.0, 0.0, 0.0, 1.6154792691649632E9, 2021-03-11 17:14:29.164
69.0, 187500.0, 187500.0, -22145.34765625, -19713.03125, 937.83447265625, -23292.57421875, 4965.77490234375, 7189.12548828125, 0.0560000017285347, 0.9200000166893005, 0.2639999985694885, 192.0, 0.0, 0.0, 0.0, 0.0, 0.0, 0.0, 0.0, 0.0, 0.0, 1.6154792691649659E9, 2021-03-11 17:14:29.164
70.0, 187500.0, 187500.0, -20645.90234375, -19763.0546875, 2674.095458984375, -23298.048828125, 6293.0888671875, 8424.7294921875, 0.0560000017285347, 0.9200000166893005, 0.2639999985694885, 192.0, 0.0, 0.0, 0.0, 0.0, 0.0, 0.0, 0.0, 0.0, 0.0, 1.615479269164968E9, 2021-03-11 17:14:29.164
71.0, 187500.0, 187500.0, -18727.162109375, -19817.7265625, 7689.9833984375, -23341.904296875, 7510.4091796875, 9562.2548828125, 0.0560000017285347, 0.9200000166893005, 0.2639999985694885, 192.0, 0.0, 0.0, 0.0, 0.0, 0.0, 0.0, 0.0, 0.0, 0.0, 1.6154792691649704E9, 2021-03-11 17:14:29.164
72.0, 187500.0, 187500.0, -19181.953125, -19805.232421875, 8955.29296875, -23363.517578125, 6831.05029296875, 8987.8369140625, 0.0560000017285347, 0.9200000166893005, 0.2639999985694885, 192.0, 0.0, 0.0, 0.0, 0.0, 0.0, 0.0, 0.0, 0.0, 0.0, 1.6154792691649728E9, 2021-03-11 17:14:29.164
73.0, 187500.0, 187500.0, -21400.029296875, -19736.25390625, 4485.369140625, -23330.52734375, 5247.49658203125, 7570.625, 0.06200000271201134, 0.9080000519752502, 0.2680000066757202, 192.0, 1.0, 240.0, 28.0, 96.0, 8.0, 96.0, 0.0, 0.0, 0.0, 1.6154792691649756E9, 2021-03-11 17:14:29.164
74.0, 187500.0, 187500.0, -22139.759765625, -19723.826171875, 924.4010620117188, -23314.03125, 4958.19775390625, 7193.48388671875, 0.06200000271201134, 0.9080000519752502, 0.2680000066757202, 192.0, 0.0, 0.0, 0.0, 0.0, 0.0, 0.0, 0.0, 0.0, 0.0, 1.6154792691649783E9, 2021-03-11 17:14:29.164
75.0, 187500.0, 187500.0, -20622.412109375, -19766.228515625, 2728.32080078125, -23310.119140625, 6298.11767578125, 8444.0419921875, 0.06200000271201134, 0.9080000519752502, 0.2680000066757202, 192.0, 0.0, 0.0, 0.0, 0.0, 0.0, 0.0, 0.0, 0.0, 0.0, 1.6154792691649806E9, 2021-03-11 17:14:29.164
76.0, 187500.0, 187500.0, -18707.939453125, -19805.880859375, 7772.59521484375, -23338.86328125, 7515.662109375, 9578.4150390625, 0.06200000271201134, 0.9080000519752502, 0.2680000066757202, 192.0, 0.0, 0.0, 0.0, 0.0, 0.0, 0.0, 0.0, 0.0, 0.0, 1.6154792691649835E9, 2021-03-11 17:14:29.164
77.0, 187500.0, 187500.0, -19206.271484375, -19785.49609375, 8945.369140625, -23353.4140625, 6810.46435546875, 8983.3671875, 0.06200000271201134, 0.9080000519752502, 0.2680000066757202, 192.0, 0.0, 0.0, 0.0, 0.0, 0.0, 0.0, 0.0, 0.0, 0.0, 1.6154792691649923E9, 2021-03-11 17:14:29.164
78.0, 187500.0, 187500.0, -21428.03515625, -19726.84375, 4421.68896484375, -23325.474609375, 5225.033203125, 7562.4443359375, 0.06200000271201134, 0.9080000519752502, 0.2680000066757202, 192.0, 0.0, 0.0, 0.0, 0.0, 0.0, 0.0, 0.0, 0.0, 0.0, 1.6154792691649945E9, 2021-03-11 17:14:29.164
79.0, 187500.0, 187500.0, -22137.255859375, -19720.921875, 901.6917114257812, -23311.05859375, 4959.42724609375, 7197.7978515625, 0.06200000271201134, 0.9080000519752502, 0.2680000066757202, 192.0, 0.0, 0.0, 0.0, 0.0, 0.0, 0.0, 0.0, 0.0, 0.0, 1.6154792691649969E9, 2021-03-11 17:14:29.164
80.0, 187500.0, 187500.0, -20597.7578125, -19761.556640625, 2761.066162109375, -23304.77734375, 6318.4130859375, 8459.486328125, 0.06200000271201134, 0.9080000519752502, 0.2680000066757202, 192.0, 0.0, 0.0, 0.0, 0.0, 0.0, 0.0, 0.0, 0.0, 0.0, 1.6154792691649988E9, 2021-03-11 17:14:29.164
81.0, 187500.0, 187500.0, -18679.21875, -19804.181640625, 7839.38232421875, -23331.443359375, 7537.9912109375, 9597.1904296875, 0.06200000271201134, 0.9080000519752502, 0.2680000066757202, 192.0, 0.0, 0.0, 0.0, 0.0, 0.0, 0.0, 0.0, 0.0, 0.0, 1.6154792691650012E9, 2021-03-11 17:14:29.165
82.0, 187500.0, 187500.0, -19237.162109375, -19781.271484375, 8890.0263671875, -23340.3828125, 6786.8388671875, 8964.0771484375, 0.09800000488758087, 0.9080000519752502, 0.2680000066757202, 192.0, 3.0, 16.0, 28.0, 96.0, 8.0, 96.0, 0.0, 0.0, 0.0, 1.6154792691650033E9, 2021-03-11 17:14:29.165
83.0, 187500.0, 187500.0, -21471.7109375, -19729.369140625, 4272.35693359375, -23318.2109375, 5200.982421875, 7539.1982421875, 0.09800000488758087, 0.9080000519752502, 0.2680000066757202, 192.0, 0.0, 0.0, 0.0, 0.0, 0.0, 0.0, 0.0, 0.0, 0.0, 1.6154792691650054E9, 2021-03-11 17:14:29.165
84.0, 187500.0, 187500.0, -22116.73828125, -19730.822265625, 845.3652954101562, -23309.068359375, 4978.20263671875, 7220.26123046875, 0.09800000488758087, 0.9080000519752502, 0.2680000066757202, 192.0, 0.0, 0.0, 0.0, 0.0, 0.0, 0.0, 0.0, 0.0, 0.0, 1.6154792691650076E9, 2021-03-11 17:14:29.165
85.0, 187500.0, 187500.0, -20552.0703125, -19768.57421875, 2791.50927734375, -23301.669921875, 6345.30224609375, 8489.326171875, 0.09800000488758087, 0.9080000519752502, 0.2680000066757202, 192.0, 0.0, 0.0, 0.0, 0.0, 0.0, 0.0, 0.0, 0.0, 0.0, 1.6154792691650097E9, 2021-03-11 17:14:29.165
86.0, 187500.0, 187500.0, -18643.521484375, -19816.20703125, 7896.15576171875, -23338.283203125, 7543.17724609375, 9611.65234375, 0.09800000488758087, 0.9080000519752502, 0.2680000066757202, 192.0, 0.0, 0.0, 0.0, 0.0, 0.0, 0.0, 0.0, 0.0, 0.0, 1.615479269165012E9, 2021-03-11 17:14:29.165
87.0, 187500.0, 187500.0, -19245.90234375, -19786.255859375, 8857.548828125, -23342.283203125, 6766.23046875, 8952.3427734375, 0.09800000488758087, 0.9080000519752502, 0.2680000066757202, 192.0, 0.0, 0.0, 0.0, 0.0, 0.0, 0.0, 0.0, 0.0, 0.0, 1.615479269165014E9, 2021-03-11 17:14:29.165
88.0, 187500.0, 187500.0, -21481.0546875, -19720.33984375, 4192.42724609375, -23311.68359375, 5184.75537109375, 7529.09521484375, 0.09800000488758087, 0.9080000519752502, 0.2680000066757202, 192.0, 0.0, 0.0, 0.0, 0.0, 0.0, 0.0, 0.0, 0.0, 0.0, 1.6154792691650164E9, 2021-03-11 17:14:29.165
89.0, 187500.0, 187500.0, -22092.28515625, -19706.951171875, 801.5111694335938, -23291.6796875, 4992.462890625, 7246.47998046875, 0.09800000488758087, 0.9080000519752502, 0.2680000066757202, 192.0, 0.0, 0.0, 0.0, 0.0, 0.0, 0.0, 0.0, 0.0, 0.0, 1.6154792691650183E9, 2021-03-11 17:14:29.165
90.0, 187500.0, 187500.0, -20477.482421875, -19745.732421875, 2874.724853515625, -23287.142578125, 6388.642578125, 8554.0341796875, 0.09800000488758087, 0.9080000519752502, 0.2680000066757202, 192.0, 0.0, 0.0, 0.0, 0.0, 0.0, 0.0, 0.0, 0.0, 0.0, 1.6154792691650205E9, 2021-03-11 17:14:29.165
91.0, 187500.0, 187500.0, -18610.396484375, -19786.703125, 7958.11474609375, -23320.267578125, 7547.2451171875, 9629.265625, 0.09800000488758087, 0.9080000519752502, 0.2680000066757202, 192.0, 0.0, 0.0, 0.0, 0.0, 0.0, 0.0, 0.0, 0.0, 0.0, 1.6154792691650229E9, 2021-03-11 17:14:29.165
92.0, 187500.0, 187500.0, -19265.90625, -19768.93359375, 8796.796875, -23336.6953125, 6734.55810546875, 8942.6201171875, 0.11600000411272049, 0.9240000247955322, 0.2680000066757202, 192.0, 3.0, 160.0, 28.0, 224.0, 8.0, 96.0, 0.0, 0.0, 0.0, 1.615479269165025E9, 2021-03-11 17:14:29.165
93.0, 187500.0, 187500.0, -21496.498046875, -19712.71875, 4096.44873046875, -23313.427734375, 5167.47705078125, 7525.78759765625, 0.11600000411272049, 0.9240000247955322, 0.2680000066757202, 192.0, 0.0, 0.0, 0.0, 0.0, 0.0, 0.0, 0.0, 0.0, 0.0, 1.6154792691650271E9, 2021-03-11 17:14:29.165
94.0, 187500.0, 187500.0, -22070.826171875, -19699.396484375, 756.3606567382812, -23294.0703125, 5009.8525390625, 7261.7685546875, 0.11600000411272049, 0.9240000247955322, 0.2680000066757202, 192.0, 0.0, 0.0, 0.0, 0.0, 0.0, 0.0, 0.0, 0.0, 0.0, 1.61547926916503E9, 2021-03-11 17:14:29.165
95.0, 187500.0, 187500.0, -20440.513671875, -19731.359375, 2897.43408203125, -23284.794921875, 6418.45947265625, 8574.083984375, 0.11600000411272049, 0.9240000247955322, 0.2680000066757202, 192.0, 0.0, 0.0, 0.0, 0.0, 0.0, 0.0, 0.0, 0.0, 0.0, 1.615479269165032E9, 2021-03-11 17:14:29.165
96.0, 187500.0, 187500.0, -18584.603515625, -19782.65625, 7984.26611328125, -23329.07421875, 7565.70751953125, 9636.462890625, 0.11600000411272049, 0.9240000247955322, 0.2680000066757202, 192.0, 0.0, 0.0, 0.0, 0.0, 0.0, 0.0, 0.0, 0.0, 0.0, 1.6154792691650343E9, 2021-03-11 17:14:29.165
97.0, 187500.0, 187500.0, -19283.654296875, -19765.4453125, 8729.5625, -23345.501953125, 6718.0625, 8913.875, 0.11600000411272049, 0.9240000247955322, 0.2680000066757202, 192.0, 0.0, 0.0, 0.0, 0.0, 0.0, 0.0, 0.0, 0.0, 0.0, 1.6154792691650364E9, 2021-03-11 17:14:29.165
98.0, 187500.0, 187500.0, -21534.697265625, -19714.55078125, 3953.062255859375, -23322.546875, 5135.40234375, 7482.15673828125, 0.11600000411272049, 0.9240000247955322, 0.2680000066757202, 192.0, 0.0, 0.0, 0.0, 0.0, 0.0, 0.0, 0.0, 0.0, 0.0, 1.6154792691650383E9, 2021-03-11 17:14:29.165
99.0, 187500.0, 187500.0, -22076.4140625, -19707.2421875, 665.8584594726562, -23299.435546875, 4999.79443359375, 7246.4130859375, 0.11600000411272049, 0.9240000247955322, 0.2680000066757202, 192.0, 0.0, 0.0, 0.0, 0.0, 0.0, 0.0, 0.0, 0.0, 0.0, 1.6154792691650407E9, 2021-03-11 17:14:29.165
100.0, 187500.0, 187500.0, -20417.71484375, -19751.833984375, 2882.63720703125, -23293.17578125, 6422.7734375, 8580.119140625, 0.11600000411272049, 0.9240000247955322, 0.2680000066757202, 192.0, 0.0, 0.0, 0.0, 0.0, 0.0, 0.0, 0.0, 0.0, 0.0, 1.615479269165044E9, 2021-03-11 17:14:29.165
101.0, 187500.0, 187500.0, -18575.013671875, -19797.318359375, 7971.27978515625, -23328.044921875, 7558.95751953125, 9636.9765625, 0.11600000411272049, 0.9240000247955322, 0.2680000066757202, 192.0, 0.0, 0.0, 0.0, 0.0, 0.0, 0.0, 0.0, 0.0, 0.0, 1.6154792691650462E9, 2021-03-11 17:14:29.165
102.0, 187500.0, 187500.0, -19324.177734375, -19776.822265625, 8606.60546875, -23342.349609375, 6686.59130859375, 8893.7587890625, 0.1300000101327896, 0.9260000586509705, 0.26200002431869507, 192.0, 4.0, 16.0, 28.0, 240.0, 8.0, 48.0, 0.0, 0.0, 0.0, 1.6154792691650488E9, 2021-03-11 17:14:29.165
103.0, 187500.0, 187500.0, -21564.42578125, -19717.45703125, 3807.4853515625, -23314.857421875, 5127.244140625, 7475.49609375, 0.1300000101327896, 0.9260000586509705, 0.26200002431869507, 192.0, 0.0, 0.0, 0.0, 0.0, 0.0, 0.0, 0.0, 0.0, 0.0, 1.615479269165051E9, 2021-03-11 17:14:29.165
104.0, 187500.0, 187500.0, -22064.8359375, -19717.6796875, 593.7964477539062, -23300.6640625, 5023.35302734375, 7271.89404296875, 0.1300000101327896, 0.9260000586509705, 0.26200002431869507, 192.0, 0.0, 0.0, 0.0, 0.0, 0.0, 0.0, 0.0, 0.0, 0.0, 1.6154792691650531E9, 2021-03-11 17:14:29.165
105.0, 187500.0, 187500.0, -20393.91015625, -19759.43359375, 2873.897705078125, -23295.58984375, 6445.23681640625, 8605.17578125, 0.1300000101327896, 0.9260000586509705, 0.26200002431869507, 192.0, 0.0, 0.0, 0.0, 0.0, 0.0, 0.0, 0.0, 0.0, 0.0, 1.6154792691650553E9, 2021-03-11 17:14:29.165
106.0, 187500.0, 187500.0, -18557.021484375, -19789.921875, 7980.01953125, -23317.00390625, 7571.8544921875, 9651.818359375, 0.1300000101327896, 0.9260000586509705, 0.26200002431869507, 192.0, 0.0, 0.0, 0.0, 0.0, 0.0, 0.0, 0.0, 0.0, 0.0, 1.6154792691650574E9, 2021-03-11 17:14:29.165
107.0, 187500.0, 187500.0, -19338.19140625, -19760.796875, 8523.5244140625, -23318.658203125, 6673.91796875, 8893.4677734375, 0.1300000101327896, 0.9260000586509705, 0.26200002431869507, 192.0, 0.0, 0.0, 0.0, 0.0, 0.0, 0.0, 0.0, 0.0, 0.0, 1.6154792691650596E9, 2021-03-11 17:14:29.165
108.0, 187500.0, 187500.0, -21568.494140625, -19710.125, 3701.85107421875, -23293.98046875, 5122.57275390625, 7480.21240234375, 0.1300000101327896, 0.9260000586509705, 0.26200002431869507, 192.0, 0.0, 0.0, 0.0, 0.0, 0.0, 0.0, 0.0, 0.0, 0.0, 1.6154792691650617E9, 2021-03-11 17:14:29.165
109.0, 187500.0, 187500.0, -22035.689453125, -19706.125, 561.8334350585938, -23274.669921875, 5048.87890625, 7297.68798828125, 0.1300000101327896, 0.9260000586509705, 0.26200002431869507, 192.0, 0.0, 0.0, 0.0, 0.0, 0.0, 0.0, 0.0, 0.0, 0.0, 1.6154792691650639E9, 2021-03-11 17:14:29.165
110.0, 187500.0, 187500.0, -20346.724609375, -19743.630859375, 2902.798583984375, -23263.224609375, 6484.68798828125, 8641.3857421875, 0.1300000101327896, 0.9260000586509705, 0.26200002431869507, 192.0, 0.0, 0.0, 0.0, 0.0, 0.0, 0.0, 0.0, 0.0, 0.0, 1.615479269165066E9, 2021-03-11 17:14:29.165
111.0, 187500.0, 187500.0, -18530.69140625, -19789.384765625, 7999.89013671875, -23294.7421875, 7585.48876953125, 9659.88671875, 0.1300000101327896, 0.9260000586509705, 0.26200002431869507, 192.0, 0.0, 0.0, 0.0, 0.0, 0.0, 0.0, 0.0, 0.0, 0.0, 1.6154792691650681E9, 2021-03-11 17:14:29.165
112.0, 187500.0, 187500.0, -19366.869140625, -19774.05078125, 8424.6630859375, -23304.798828125, 6657.62353515625, 8867.763671875, 0.1340000033378601, 0.940000057220459, 0.25600001215934753, 192.0, 4.0, 48.0, 29.0, 96.0, 8.0, 0.0, 0.0, 0.0, 0.0, 1.6154792691650703E9, 2021-03-11 17:14:29.165
113.0, 187500.0, 187500.0, -21590.935546875, -19725.705078125, 3572.4345703125, -23279.095703125, 5124.71826171875, 7470.6904296875, 0.1340000033378601, 0.940000057220459, 0.25600001215934753, 192.0, 0.0, 0.0, 0.0, 0.0, 0.0, 0.0, 0.0, 0.0, 0.0, 1.6154792691650724E9, 2021-03-11 17:14:29.165
114.0, 187500.0, 187500.0, -22026.7265625, -19740.14453125, 501.66253662109375, -23276.748046875, 5071.4765625, 7308.3720703125, 0.1340000033378601, 0.940000057220459, 0.25600001215934753, 192.0, 0.0, 0.0, 0.0, 0.0, 0.0, 0.0, 0.0, 0.0, 0.0, 1.6154792691650746E9, 2021-03-11 17:14:29.165
115.0, 187500.0, 187500.0, -20308.927734375, -19799.755859375, 2952.12890625, -23288.482421875, 6512.09130859375, 8663.0888671875, 0.1340000033378601, 0.940000057220459, 0.25600001215934753, 192.0, 0.0, 0.0, 0.0, 0.0, 0.0, 0.0, 0.0, 0.0, 0.0, 1.6154792691650767E9, 2021-03-11 17:14:29.165
116.0, 187500.0, 187500.0, -18522.2421875, -19847.208984375, 8050.830078125, -23328.1796875, 7573.1728515625, 9641.6923828125, 0.1340000033378601, 0.940000057220459, 0.25600001215934753, 192.0, 0.0, 0.0, 0.0, 0.0, 0.0, 0.0, 0.0, 0.0, 0.0, 1.615479269165079E9, 2021-03-11 17:14:29.165
117.0, 187500.0, 187500.0, -19422.63671875, -19821.99609375, 8335.76953125, -23333.96875, 6607.1083984375, 8810.0068359375, 0.1340000033378601, 0.940000057220459, 0.25600001215934753, 192.0, 0.0, 0.0, 0.0, 0.0, 0.0, 0.0, 0.0, 0.0, 0.0, 1.6154792691650813E9, 2021-03-11 17:14:29.165
118.0, 187500.0, 187500.0, -21636.80078125, -19769.580078125, 3443.755615234375, -23312.154296875, 5078.115234375, 7419.4599609375, 0.1340000033378601, 0.940000057220459, 0.25600001215934753, 192.0, 0.0, 0.0, 0.0, 0.0, 0.0, 0.0, 0.0, 0.0, 0.0, 1.6154792691650832E9, 2021-03-11 17:14:29.165
119.0, 187500.0, 187500.0, -22017.271484375, -19763.814453125, 447.83953857421875, -23291.09765625, 5068.79443359375, 7302.5830078125, 0.1340000033378601, 0.940000057220459, 0.25600001215934753, 192.0, 0.0, 0.0, 0.0, 0.0, 0.0, 0.0, 0.0, 0.0, 0.0, 1.6154792691650853E9, 2021-03-11 17:14:29.165
120.0, 187500.0, 187500.0, -20264.873046875, -19799.30859375, 2992.9208984375, -23279.966796875, 6532.05126953125, 8686.111328125, 0.1340000033378601, 0.940000057220459, 0.25600001215934753, 192.0, 0.0, 0.0, 0.0, 0.0, 0.0, 0.0, 0.0, 0.0, 0.0, 1.6154792691650877E9, 2021-03-11 17:14:29.165
121.0, 187500.0, 187500.0, -18510.57421875, -19837.5078125, 8051.388671875, -23316.892578125, 7570.33447265625, 9643.2353515625, 0.1340000033378601, 0.940000057220459, 0.25600001215934753, 192.0, 0.0, 0.0, 0.0, 0.0, 0.0, 0.0, 0.0, 0.0, 0.0, 1.6154792691650896E9, 2021-03-11 17:14:29.165
122.0, 187500.0, 187500.0, -19441.30078125, -19819.380859375, 8254.990234375, -23332.806640625, 6586.298828125, 8804.4189453125, 0.13600000739097595, 0.9320000410079956, 0.2580000162124634, 192.0, 4.0, 64.0, 29.0, 32.0, 8.0, 16.0, 0.0, 0.0, 0.0, 1.6154792691650918E9, 2021-03-11 17:14:29.165
123.0, 187500.0, 187500.0, -21642.611328125, -19768.865234375, 3362.61865234375, -23311.4609375, 5072.01318359375, 7426.2998046875, 0.13600000739097595, 0.9320000410079956, 0.2580000162124634, 192.0, 0.0, 0.0, 0.0, 0.0, 0.0, 0.0, 0.0, 0.0, 0.0, 1.615479269165095E9, 2021-03-11 17:14:29.165
124.0, 187500.0, 187500.0, -21991.76953125, -19771.2578125, 446.5431213378906, -23303.681640625, 5081.4453125, 7324.1298828125, 0.13600000739097595, 0.9320000410079956, 0.2580000162124634, 192.0, 0.0, 0.0, 0.0, 0.0, 0.0, 0.0, 0.0, 0.0, 0.0, 1.6154792691650972E9, 2021-03-11 17:14:29.165
125.0, 187500.0, 187500.0, -20239.66015625, -19802.416015625, 3038.451416015625, -23296.552734375, 6544.07666015625, 8691.140625, 0.13600000739097595, 0.9320000410079956, 0.2580000162124634, 192.0, 0.0, 0.0, 0.0, 0.0, 0.0, 0.0, 0.0, 0.0, 0.0, 1.6154792691650991E9, 2021-03-11 17:14:29.165
126.0, 187500.0, 187500.0, -18508.673828125, -19837.44140625, 8073.740234375, -23331.2421875, 7565.50634765625, 9632.037109375, 0.13600000739097595, 0.9320000410079956, 0.2580000162124634, 192.0, 0.0, 0.0, 0.0, 0.0, 0.0, 0.0, 0.0, 0.0, 0.0, 1.615479269165102E9, 2021-03-11 17:14:29.165
127.0, 187500.0, 187500.0, -19472.8828125, -19806.037109375, 8176.24560546875, -23338.037109375, 6561.64501953125, 8775.0263671875, 0.13600000739097595, 0.9320000410079956, 0.2580000162124634, 192.0, 0.0, 0.0, 0.0, 0.0, 0.0, 0.0, 0.0, 0.0, 0.0, 1.6154792691651044E9, 2021-03-11 17:14:29.165
128.0, 187500.0, 187500.0, -21669.03125, -19750.0, 3243.68505859375, -23310.275390625, 5063.474609375, 7408.99951171875, 0.13600000739097595, 0.9320000410079956, 0.2580000162124634, 192.0, 0.0, 0.0, 0.0, 0.0, 0.0, 0.0, 0.0, 0.0, 0.0, 1.6154792691651065E9, 2021-03-11 17:14:29.165
129.0, 187500.0, 187500.0, -21988.013671875, -19742.580078125, 379.8902282714844, -23288.751953125, 5103.32763671875, 7339.19482421875, 0.13600000739097595, 0.9320000410079956, 0.2580000162124634, 192.0, 0.0, 0.0, 0.0, 0.0, 0.0, 0.0, 0.0, 0.0, 0.0, 1.615479269165109E9, 2021-03-11 17:14:29.165
130.0, 187500.0, 187500.0, -20202.84765625, -19783.6171875, 3051.147216796875, -23293.869140625, 6576.62060546875, 8734.591796875, 0.13600000739097595, 0.9320000410079956, 0.2580000162124634, 192.0, 0.0, 0.0, 0.0, 0.0, 0.0, 0.0, 0.0, 0.0, 0.0, 1.6154792691651108E9, 2021-03-11 17:14:29.165
131.0, 187500.0, 187500.0, -18490.525390625, -19836.2109375, 8088.9619140625, -23345.14453125, 7562.15380859375, 9644.6875, 0.13600000739097595, 0.9320000410079956, 0.2580000162124634, 192.0, 0.0, 0.0, 0.0, 0.0, 0.0, 0.0, 0.0, 0.0, 0.0, 1.6154792691651132E9, 2021-03-11 17:14:29.165
132.0, 187500.0, 187500.0, -19517.7890625, -19804.44921875, 8060.7763671875, -23344.876953125, 6514.9970703125, 8737.095703125, 0.11600000411272049, 0.9360000491142273, 0.2580000162124634, 192.0, 3.0, 160.0, 29.0, 64.0, 8.0, 16.0, 0.0, 0.0, 0.0, 1.615479269165115E9, 2021-03-11 17:14:29.165
133.0, 187500.0, 187500.0, -21707.119140625, -19746.916015625, 3101.080810546875, -23315.55078125, 5030.61767578125, 7371.18017578125, 0.11600000411272049, 0.9360000491142273, 0.2580000162124634, 192.0, 0.0, 0.0, 0.0, 0.0, 0.0, 0.0, 0.0, 0.0, 0.0, 1.6154792691651175E9, 2021-03-11 17:14:29.165
134.0, 187500.0, 187500.0, -21971.00390625, -19745.240234375, 336.080810546875, -23301.78125, 5113.92236328125, 7341.45263671875, 0.11600000411272049, 0.9360000491142273, 0.2580000162124634, 192.0, 0.0, 0.0, 0.0, 0.0, 0.0, 0.0, 0.0, 0.0, 0.0, 1.6154792691651196E9, 2021-03-11 17:14:29.165
135.0, 187500.0, 187500.0, -20168.73828125, -19784.66796875, 3079.4443359375, -23302.498046875, 6594.21142578125, 8736.3359375, 0.11600000411272049, 0.9360000491142273, 0.2580000162124634, 192.0, 0.0, 0.0, 0.0, 0.0, 0.0, 0.0, 0.0, 0.0, 0.0, 1.6154792691651218E9, 2021-03-11 17:14:29.165
136.0, 187500.0, 187500.0, -18473.6484375, -19824.677734375, 8095.62255859375, -23341.232421875, 7570.13330078125, 9640.0615234375, 0.11600000411272049, 0.9360000491142273, 0.2580000162124634, 192.0, 0.0, 0.0, 0.0, 0.0, 0.0, 0.0, 0.0, 0.0, 0.0, 1.615479269165124E9, 2021-03-11 17:14:29.165
137.0, 187500.0, 187500.0, -19545.146484375, -19798.34765625, 7955.56689453125, -23349.615234375, 6488.9345703125, 8720.0634765625, 0.11600000411272049, 0.9360000491142273, 0.2580000162124634, 192.0, 0.0, 0.0, 0.0, 0.0, 0.0, 0.0, 0.0, 0.0, 0.0, 1.6154792691651263E9, 2021-03-11 17:14:29.165
138.0, 187500.0, 187500.0, -21720.28515625, -19751.296875, 2996.273681640625, -23330.056640625, 5018.9052734375, 7364.25146484375, 0.11600000411272049, 0.9360000491142273, 0.2580000162124634, 192.0, 0.0, 0.0, 0.0, 0.0, 0.0, 0.0, 0.0, 0.0, 0.0, 1.6154792691651285E9, 2021-03-11 17:14:29.165
139.0, 187500.0, 187500.0, -21944.5390625, -19740.880859375, 328.1906433105469, -23305.716796875, 5137.52587890625, 7361.61376953125, 0.11600000411272049, 0.9360000491142273, 0.2580000162124634, 192.0, 0.0, 0.0, 0.0, 0.0, 0.0, 0.0, 0.0, 0.0, 0.0, 1.6154792691651309E9, 2021-03-11 17:14:29.165
140.0, 187500.0, 187500.0, -20131.03125, -19783.259765625, 3137.402587890625, -23307.369140625, 6620.16162109375, 8758.6201171875, 0.11600000411272049, 0.9360000491142273, 0.2580000162124634, 192.0, 0.0, 0.0, 0.0, 0.0, 0.0, 0.0, 0.0, 0.0, 0.0, 1.615479269165133E9, 2021-03-11 17:14:29.165
141.0, 187500.0, 187500.0, -18469.06640625, -19827.91796875, 8124.724609375, -23349.056640625, 7563.830078125, 9632.908203125, 0.11600000411272049, 0.9360000491142273, 0.2580000162124634, 192.0, 0.0, 0.0, 0.0, 0.0, 0.0, 0.0, 0.0, 0.0, 0.0, 1.6154792691651351E9, 2021-03-11 17:14:29.165
142.0, 187500.0, 187500.0, -19582.1171875, -19794.94921875, 7857.39794921875, -23353.5703125, 6464.86181640625, 8683.0712890625, 0.10400000214576721, 0.9380000233650208, 0.2639999985694885, 192.0, 3.0, 64.0, 29.0, 80.0, 8.0, 64.0, 0.0, 0.0, 0.0, 1.6154792691651373E9, 2021-03-11 17:14:29.165
143.0, 187500.0, 187500.0, -21746.123046875, -19751.05078125, 2864.48779296875, -23337.880859375, 4998.98974609375, 7327.08056640625, 0.10400000214576721, 0.9380000233650208, 0.2639999985694885, 192.0, 0.0, 0.0, 0.0, 0.0, 0.0, 0.0, 0.0, 0.0, 0.0, 1.6154792691651397E9, 2021-03-11 17:14:29.165
144.0, 187500.0, 187500.0, -21947.51171875, -19771.771484375, 258.18499755859375, -23336.806640625, 5131.13330078125, 7336.69140625, 0.10400000214576721, 0.9380000233650208, 0.2639999985694885, 192.0, 0.0, 0.0, 0.0, 0.0, 0.0, 0.0, 0.0, 0.0, 0.0, 1.6154792691651416E9, 2021-03-11 17:14:29.165
145.0, 187500.0, 187500.0, -20113.91015625, -19819.3359375, 3164.470458984375, -23340.986328125, 6628.58837890625, 8752.0712890625, 0.10400000214576721, 0.9380000233650208, 0.2639999985694885, 192.0, 0.0, 0.0, 0.0, 0.0, 0.0, 0.0, 0.0, 0.0, 0.0, 1.6154792691651437E9, 2021-03-11 17:14:29.165
146.0, 187500.0, 187500.0, -18473.314453125, -19853.109375, 8140.01318359375, -23369.26171875, 7558.48779296875, 9620.212890625, 0.10400000214576721, 0.9380000233650208, 0.2639999985694885, 192.0, 0.0, 0.0, 0.0, 0.0, 0.0, 0.0, 0.0, 0.0, 0.0, 1.615479269165146E9, 2021-03-11 17:14:29.165
147.0, 187500.0, 187500.0, -19630.12890625, -19816.966796875, 7773.04248046875, -23367.607421875, 6434.5751953125, 8657.3671875, 0.10400000214576721, 0.9380000233650208, 0.2639999985694885, 192.0, 0.0, 0.0, 0.0, 0.0, 0.0, 0.0, 0.0, 0.0, 0.0, 1.6154792691651492E9, 2021-03-11 17:14:29.165
148.0, 187500.0, 187500.0, -21774.978515625, -19773.73828125, 2793.029296875, -23354.64453125, 4988.88671875, 7323.5712890625, 0.10400000214576721, 0.9380000233650208, 0.2639999985694885, 192.0, 0.0, 0.0, 0.0, 0.0, 0.0, 0.0, 0.0, 0.0, 0.0, 1.6154792691651511E9, 2021-03-11 17:14:29.165
149.0, 187500.0, 187500.0, -21925.607421875, -19764.015625, 281.49786376953125, -23329.162109375, 5161.822265625, 7368.40869140625, 0.10400000214576721, 0.9380000233650208, 0.2639999985694885, 192.0, 0.0, 0.0, 0.0, 0.0, 0.0, 0.0, 0.0, 0.0, 0.0, 1.6154792691651535E9, 2021-03-11 17:14:29.165
150.0, 187500.0, 187500.0, -20084.13671875, -19806.908203125, 3242.7685546875, -23329.7890625, 6660.52880859375, 8777.775390625, 0.10400000214576721, 0.9380000233650208, 0.2639999985694885, 192.0, 0.0, 0.0, 0.0, 0.0, 0.0, 0.0, 0.0, 0.0, 0.0, 1.6154792691651556E9, 2021-03-11 17:14:29.165
151.0, 187500.0, 187500.0, -18491.015625, -19841.8671875, 8153.4912109375, -23360.478515625, 7549.94970703125, 9608.3662109375, 0.10400000214576721, 0.9380000233650208, 0.2639999985694885, 192.0, 0.0, 0.0, 0.0, 0.0, 0.0, 0.0, 0.0, 0.0, 0.0, 1.6154792691651578E9, 2021-03-11 17:14:29.165
152.0, 187500.0, 187500.0, -19676.396484375, -19809.27734375, 7681.35546875, -23362.466796875, 6404.86962890625, 8639.2392578125, 0.09000000357627869, 0.9300000667572021, 0.2720000147819519, 192.0, 2.0, 208.0, 29.0, 16.0, 8.0, 128.0, 0.0, 0.0, 0.0, 1.61547926916516E9, 2021-03-11 17:14:29.165
153.0, 187500.0, 187500.0, -21805.4453125, -19766.541015625, 2684.466796875, -23343.244140625, 4971.78759765625, 7309.9365234375, 0.09000000357627869, 0.9300000667572021, 0.2720000147819519, 192.0, 0.0, 0.0, 0.0, 0.0, 0.0, 0.0, 0.0, 0.0, 0.0, 1.615479269165162E9, 2021-03-11 17:14:29.165
154.0, 187500.0, 187500.0, -21925.96484375, -19774.87890625, 244.0363311767578, -23329.140625, 5162.11279296875, 7381.5517578125, 0.09000000357627869, 0.9300000667572021, 0.2720000147819519, 192.0, 0.0, 0.0, 0.0, 0.0, 0.0, 0.0, 0.0, 0.0, 0.0, 1.6154792691651642E9, 2021-03-11 17:14:29.165
155.0, 187500.0, 187500.0, -20075.755859375, -19810.216796875, 3252.357421875, -23320.916015625, 6665.916015625, 8797.490234375, 0.09000000357627869, 0.9300000667572021, 0.2720000147819519, 192.0, 0.0, 0.0, 0.0, 0.0, 0.0, 0.0, 0.0, 0.0, 0.0, 1.6154792691651664E9, 2021-03-11 17:14:29.165
156.0, 187500.0, 187500.0, -18481.025390625, -19840.994140625, 8172.57958984375, -23347.513671875, 7553.2802734375, 9631.544921875, 0.09000000357627869, 0.9300000667572021, 0.2720000147819519, 192.0, 0.0, 0.0, 0.0, 0.0, 0.0, 0.0, 0.0, 0.0, 0.0, 1.6154792691651683E9, 2021-03-11 17:14:29.165
157.0, 187500.0, 187500.0, -19702.369140625, -19810.88671875, 7612.51220703125, -23359.830078125, 6383.54638671875, 8632.109375, 0.09000000357627869, 0.9300000667572021, 0.2720000147819519, 192.0, 0.0, 0.0, 0.0, 0.0, 0.0, 0.0, 0.0, 0.0, 0.0, 1.6154792691651707E9, 2021-03-11 17:14:29.165
158.0, 187500.0, 187500.0, -21821.828125, -19768.75390625, 2607.844970703125, -23343.736328125, 4961.908203125, 7299.09619140625, 0.09000000357627869, 0.9300000667572021, 0.2720000147819519, 192.0, 0.0, 0.0, 0.0, 0.0, 0.0, 0.0, 0.0, 0.0, 0.0, 1.6154792691651728E9, 2021-03-11 17:14:29.165
159.0, 187500.0, 187500.0, -21923.08203125, -19777.650390625, 214.33087158203125, -23333.0078125, 5173.28857421875, 7377.953125, 0.09000000357627869, 0.9300000667572021, 0.2720000147819519, 192.0, 0.0, 0.0, 0.0, 0.0, 0.0, 0.0, 0.0, 0.0, 0.0, 1.615479269165175E9, 2021-03-11 17:14:29.165
160.0, 187500.0, 187500.0, -20054.56640625, -19825.482421875, 3289.930908203125, -23343.244140625, 6681.8974609375, 8806.9443359375, 0.09000000357627869, 0.9300000667572021, 0.2720000147819519, 192.0, 0.0, 0.0, 0.0, 0.0, 0.0, 0.0, 0.0, 0.0, 0.0, 1.615479269165177E9, 2021-03-11 17:14:29.165
161.0, 187500.0, 187500.0, -18475.1015625, -19857.06640625, 8204.85546875, -23374.73828125, 7547.021484375, 9630.8076171875, 0.09000000357627869, 0.9300000667572021, 0.2720000147819519, 192.0, 0.0, 0.0, 0.0, 0.0, 0.0, 0.0, 0.0, 0.0, 0.0, 1.6154792691651793E9, 2021-03-11 17:14:29.165
162.0, 187500.0, 187500.0, -19737.572265625, -19813.166015625, 7532.71630859375, -23367.697265625, 6348.49853515625, 8608.3046875, 0.08400000631809235, 0.9220000505447388, 0.27800002694129944, 192.0, 2.0, 160.0, 28.0, 208.0, 8.0, 176.0, 0.0, 0.0, 0.0, 1.6154792691651814E9, 2021-03-11 17:14:29.165
163.0, 187500.0, 187500.0, -21845.611328125, -19777.783203125, 2508.781982421875, -23360.1875, 4935.5556640625, 7277.99609375, 0.08400000631809235, 0.9220000505447388, 0.27800002694129944, 192.0, 0.0, 0.0, 0.0, 0.0, 0.0, 0.0, 0.0, 0.0, 0.0, 1.6154792691651835E9, 2021-03-11 17:14:29.165
164.0, 187500.0, 187500.0, -21906.541015625, -19783.953125, 203.17735290527344, -23342.41796875, 5180.32958984375, 7389.5087890625, 0.08400000631809235, 0.9220000505447388, 0.27800002694129944, 192.0, 0.0, 0.0, 0.0, 0.0, 0.0, 0.0, 0.0, 0.0, 0.0, 1.6154792691651857E9, 2021-03-11 17:14:29.165
165.0, 187500.0, 187500.0, -20008.140625, -19820.54296875, 3367.960693359375, -23332.560546875, 6713.8603515625, 8846.3505859375, 0.08400000631809235, 0.9220000505447388, 0.27800002694129944, 192.0, 0.0, 0.0, 0.0, 0.0, 0.0, 0.0, 0.0, 0.0, 0.0, 1.6154792691651878E9, 2021-03-11 17:14:29.165
166.0, 187500.0, 187500.0, -18450.828125, -19860.28515625, 8283.623046875, -23372.078125, 7555.8505859375, 9648.7333984375, 0.08400000631809235, 0.9220000505447388, 0.27800002694129944, 192.0, 0.0, 0.0, 0.0, 0.0, 0.0, 0.0, 0.0, 0.0, 0.0, 1.61547926916519E9, 2021-03-11 17:14:29.165
167.0, 187500.0, 187500.0, -19776.017578125, -19832.724609375, 7489.57763671875, -23383.701171875, 6311.57373046875, 8574.576171875, 0.08400000631809235, 0.9220000505447388, 0.27800002694129944, 192.0, 0.0, 0.0, 0.0, 0.0, 0.0, 0.0, 0.0, 0.0, 0.0, 1.6154792691651921E9, 2021-03-11 17:14:29.165
168.0, 187500.0, 187500.0, -21877.8203125, -19791.619140625, 2443.89501953125, -23367.67578125, 4912.08642578125, 7249.1845703125, 0.08400000631809235, 0.9220000505447388, 0.27800002694129944, 192.0, 0.0, 0.0, 0.0, 0.0, 0.0, 0.0, 0.0, 0.0, 0.0, 1.6154792691651945E9, 2021-03-11 17:14:29.165
169.0, 187500.0, 187500.0, -21902.607421875, -19802.19140625, 216.141357421875, -23354.263671875, 5192.6005859375, 7390.40283203125, 0.08400000631809235, 0.9220000505447388, 0.27800002694129944, 192.0, 0.0, 0.0, 0.0, 0.0, 0.0, 0.0, 0.0, 0.0, 0.0, 1.6154792691651964E9, 2021-03-11 17:14:29.165
170.0, 187500.0, 187500.0, -19992.181640625, -19841.732421875, 3450.639892578125, -23352.564453125, 6728.12060546875, 8849.078125, 0.08400000631809235, 0.9220000505447388, 0.27800002694129944, 192.0, 0.0, 0.0, 0.0, 0.0, 0.0, 0.0, 0.0, 0.0, 0.0, 1.6154792691651995E9, 2021-03-11 17:14:29.165
171.0, 187500.0, 187500.0, -18459.6796875, -19863.48046875, 8334.65234375, -23374.044921875, 7552.74365234375, 9635.859375, 0.08400000631809235, 0.9220000505447388, 0.27800002694129944, 192.0, 0.0, 0.0, 0.0, 0.0, 0.0, 0.0, 0.0, 0.0, 0.0, 1.615479269165202E9, 2021-03-11 17:14:29.165
172.0, 187500.0, 187500.0, -19807.646484375, -19824.744140625, 7450.4619140625, -23376.5703125, 6302.8115234375, 8565.8359375, 0.0820000022649765, 0.9140000343322754, 0.28200000524520874, 192.0, 2.0, 144.0, 28.0, 144.0, 8.0, 208.0, 0.0, 0.0, 0.0, 1.615479269165204E9, 2021-03-11 17:14:29.165
173.0, 187500.0, 187500.0, -21890.560546875, -19788.84765625, 2402.32080078125, -23368.234375, 4913.13671875, 7247.9775390625, 0.0820000022649765, 0.9140000343322754, 0.28200000524520874, 192.0, 0.0, 0.0, 0.0, 0.0, 0.0, 0.0, 0.0, 0.0, 0.0, 1.615479269165206E9, 2021-03-11 17:14:29.165
174.0, 187500.0, 187500.0, -21907.81640625, -19804.337890625, 200.56219482421875, -23361.193359375, 5194.74658203125, 7383.5185546875, 0.0820000022649765, 0.9140000343322754, 0.28200000524520874, 192.0, 0.0, 0.0, 0.0, 0.0, 0.0, 0.0, 0.0, 0.0, 0.0, 1.6154792691652083E9, 2021-03-11 17:14:29.165
175.0, 187500.0, 187500.0, -19974.5234375, -19836.859375, 3489.733154296875, -23347.71484375, 6751.54541015625, 8864.8134765625, 0.0820000022649765, 0.9140000343322754, 0.28200000524520874, 192.0, 0.0, 0.0, 0.0, 0.0, 0.0, 0.0, 0.0, 0.0, 0.0, 1.6154792696451075E9, 2021-03-11 17:14:29.645
176.0, 187500.0, 187500.0, -18429.81640625, -19854.47265625, 8404.6806640625, -23362.265625, 7580.68310546875, 9681.478515625, 0.0820000022649765, 0.9140000343322754, 0.28200000524520874, 192.0, 0.0, 0.0, 0.0, 0.0, 0.0, 0.0, 0.0, 0.0, 0.0, 1.6154792696451228E9, 2021-03-11 17:14:29.645
177.0, 187500.0, 187500.0, -19829.818359375, -19821.548828125, 7417.6494140625, -23370.736328125, 6286.91943359375, 8572.9892578125, 0.0820000022649765, 0.9140000343322754, 0.28200000524520874, 192.0, 0.0, 0.0, 0.0, 0.0, 0.0, 0.0, 0.0, 0.0, 0.0, 1.615479269645134E9, 2021-03-11 17:14:29.645
178.0, 187500.0, 187500.0, -21928.71484375, -19789.541015625, 2312.869140625, -23362.400390625, 4895.65771484375, 7231.92919921875, 0.0820000022649765, 0.9140000343322754, 0.28200000524520874, 192.0, 0.0, 0.0, 0.0, 0.0, 0.0, 0.0, 0.0, 0.0, 0.0, 1.615479269645151E9, 2021-03-11 17:14:29.645
179.0, 187500.0, 187500.0, -21896.68359375, -19800.560546875, 200.9645233154297, -23346.216796875, 5219.4228515625, 7410.8544921875, 0.0820000022649765, 0.9140000343322754, 0.28200000524520874, 192.0, 0.0, 0.0, 0.0, 0.0, 0.0, 0.0, 0.0, 0.0, 0.0, 1.6154792696451623E9, 2021-03-11 17:14:29.645
180.0, 187500.0, 187500.0, -19937.0625, -19837.26171875, 3589.1982421875, -23343.71484375, 6781.54150390625, 8907.5947265625, 0.0820000022649765, 0.9140000343322754, 0.28200000524520874, 192.0, 0.0, 0.0, 0.0, 0.0, 0.0, 0.0, 0.0, 0.0, 0.0, 1.6154792696451795E9, 2021-03-11 17:14:29.645
181.0, 187500.0, 187500.0, -18463.904296875, -19877.337890625, 8436.3974609375, -23382.896484375, 7547.267578125, 9655.0595703125, 0.0820000022649765, 0.9140000343322754, 0.28200000524520874, 192.0, 0.0, 0.0, 0.0, 0.0, 0.0, 0.0, 0.0, 0.0, 0.0, 1.615479269645194E9, 2021-03-11 17:14:29.645
182.0, 187500.0, 187500.0, -19888.4921875, -19842.357421875, 7361.5693359375, -23383.25390625, 6244.94287109375, 8534.119140625, 0.0860000029206276, 0.8960000276565552, 0.3020000159740448, 192.0, 2.0, 176.0, 28.0, 0.0, 9.0, 112.0, 0.0, 0.0, 0.0, 1.6154792696452055E9, 2021-03-11 17:14:29.645
183.0, 187500.0, 187500.0, -21977.44140625, -19797.587890625, 2224.69140625, -23365.060546875, 4862.353515625, 7190.01953125, 0.0860000029206276, 0.8960000276565552, 0.3020000159740448, 192.0, 0.0, 0.0, 0.0, 0.0, 0.0, 0.0, 0.0, 0.0, 0.0, 1.615479269645212E9, 2021-03-11 17:14:29.645
184.0, 187500.0, 187500.0, -21891.56640625, -19806.21484375, 200.85276794433594, -23347.6484375, 5238.6005859375, 7414.83349609375, 0.0860000029206276, 0.8960000276565552, 0.3020000159740448, 192.0, 0.0, 0.0, 0.0, 0.0, 0.0, 0.0, 0.0, 0.0, 0.0, 1.615479269645218E9, 2021-03-11 17:14:29.645
185.0, 187500.0, 187500.0, -19913.146484375, -19843.677734375, 3657.035888671875, -23343.087890625, 6810.08447265625, 8926.146484375, 0.0860000029206276, 0.8960000276565552, 0.3020000159740448, 192.0, 0.0, 0.0, 0.0, 0.0, 0.0, 0.0, 0.0, 0.0, 0.0, 1.61547926964523E9, 2021-03-11 17:14:29.645
186.0, 187500.0, 187500.0, -18442.22265625, -19868.12890625, 8498.7138671875, -23368.32421875, 7570.826171875, 9676.896484375, 0.0860000029206276, 0.8960000276565552, 0.3020000159740448, 192.0, 0.0, 0.0, 0.0, 0.0, 0.0, 0.0, 0.0, 0.0, 0.0, 1.61547926964525E9, 2021-03-11 17:14:29.645
187.0, 187500.0, 187500.0, -19893.4765625, -19818.419921875, 7340.111328125, -23356.701171875, 6244.76416015625, 8541.673828125, 0.0860000029206276, 0.8960000276565552, 0.3020000159740448, 192.0, 0.0, 0.0, 0.0, 0.0, 0.0, 0.0, 0.0, 0.0, 0.0, 1.6154792696452668E9, 2021-03-11 17:14:29.645
188.0, 187500.0, 187500.0, -21975.49609375, -19779.974609375, 2197.109375, -23345.390625, 4867.89697265625, 7197.8427734375, 0.0860000029206276, 0.8960000276565552, 0.3020000159740448, 192.0, 0.0, 0.0, 0.0, 0.0, 0.0, 0.0, 0.0, 0.0, 0.0, 1.615479269645285E9, 2021-03-11 17:14:29.645
189.0, 187500.0, 187500.0, -21883.630859375, -19805.8125, 204.29493713378906, -23347.37890625, 5239.78515625, 7417.11328125, 0.0860000029206276, 0.8960000276565552, 0.3020000159740448, 192.0, 0.0, 0.0, 0.0, 0.0, 0.0, 0.0, 0.0, 0.0, 0.0, 1.6154792696452875E9, 2021-03-11 17:14:29.645
190.0, 187500.0, 187500.0, -19912.029296875, -19847.900390625, 3678.5830078125, -23349.345703125, 6811.67138671875, 8913.2275390625, 0.0860000029206276, 0.8960000276565552, 0.3020000159740448, 192.0, 0.0, 0.0, 0.0, 0.0, 0.0, 0.0, 0.0, 0.0, 0.0, 1.6154792696452904E9, 2021-03-11 17:14:29.645
191.0, 187500.0, 187500.0, -18437.57421875, -19863.123046875, 8542.4560546875, -23368.166015625, 7574.7822265625, 9674.169921875, 0.09600000083446503, 0.8840000629425049, 0.2980000078678131, 192.0, 3.0, 0.0, 27.0, 160.0, 9.0, 80.0, 0.0, 0.0, 0.0, 1.6154792696452932E9, 2021-03-11 17:14:29.645
192.0, 187500.0, 187500.0, -19927.83203125, -19816.18359375, 7286.48974609375, -23362.69140625, 6215.41650390625, 8512.52734375, 0.09600000083446503, 0.8840000629425049, 0.2980000078678131, 192.0, 0.0, 0.0, 0.0, 0.0, 0.0, 0.0, 0.0, 0.0, 0.0, 1.615479269645296E9, 2021-03-11 17:14:29.645
193.0, 187500.0, 187500.0, -22000.865234375, -19779.236328125, 2122.7451171875, -23356.767578125, 4847.04248046875, 7167.376953125, 0.09600000083446503, 0.8840000629425049, 0.2980000078678131, 192.0, 0.0, 0.0, 0.0, 0.0, 0.0, 0.0, 0.0, 0.0, 0.0, 1.6154792696453123E9, 2021-03-11 17:14:29.645
194.0, 187500.0, 187500.0, -21867.537109375, -19789.83203125, 215.02377319335938, -23341.1875, 5259.83447265625, 7430.3232421875, 0.09600000083446503, 0.8840000629425049, 0.2980000078678131, 192.0, 0.0, 0.0, 0.0, 0.0, 0.0, 0.0, 0.0, 0.0, 0.0, 1.6154792696453152E9, 2021-03-11 17:14:29.645
195.0, 187500.0, 187500.0, -19859.189453125, -19830.712890625, 3791.7275390625, -23341.076171875, 6847.63525390625, 8958.2216796875, 0.09600000083446503, 0.8840000629425049, 0.2980000078678131, 192.0, 0.0, 0.0, 0.0, 0.0, 0.0, 0.0, 0.0, 0.0, 0.0, 1.6154792696453178E9, 2021-03-11 17:14:29.645
196.0, 187500.0, 187500.0, -18428.341796875, -19859.76953125, 8619.1005859375, -23374.939453125, 7569.2392578125, 9679.109375, 0.09600000083446503, 0.8840000629425049, 0.2980000078678131, 192.0, 0.0, 0.0, 0.0, 0.0, 0.0, 0.0, 0.0, 0.0, 0.0, 1.6154792696453204E9, 2021-03-11 17:14:29.645
197.0, 187500.0, 187500.0, -19964.220703125, -19820.4765625, 7257.7900390625, -23374.357421875, 6189.890625, 8491.2705078125, 0.09600000083446503, 0.8840000629425049, 0.2980000078678131, 192.0, 0.0, 0.0, 0.0, 0.0, 0.0, 0.0, 0.0, 0.0, 0.0, 1.6154792696453233E9, 2021-03-11 17:14:29.645
198.0, 187500.0, 187500.0, -22017.787109375, -19787.775390625, 2109.602294921875, -23366.78125, 4842.12548828125, 7160.42578125, 0.09600000083446503, 0.8840000629425049, 0.2980000078678131, 192.0, 0.0, 0.0, 0.0, 0.0, 0.0, 0.0, 0.0, 0.0, 0.0, 1.615479269645326E9, 2021-03-11 17:14:29.645
199.0, 187500.0, 187500.0, -21862.77734375, -19793.02734375, 251.41241455078125, -23347.24609375, 5274.9443359375, 7433.51953125, 0.09600000083446503, 0.8840000629425049, 0.2980000078678131, 192.0, 0.0, 0.0, 0.0, 0.0, 0.0, 0.0, 0.0, 0.0, 0.0, 1.6154792696453288E9, 2021-03-11 17:14:29.645
200.0, 187500.0, 187500.0, -19849.869140625, -19830.376953125, 3868.594970703125, -23342.619140625, 6863.63916015625, 8961.619140625, 0.09600000083446503, 0.8840000629425049, 0.2980000078678131, 192.0, 0.0, 0.0, 0.0, 0.0, 0.0, 0.0, 0.0, 0.0, 0.0, 1.6154792696453316E9, 2021-03-11 17:14:29.645
201.0, 187500.0, 187500.0, -18438.087890625, -19849.7109375, 8650.4599609375, -23364.76953125, 7566.0205078125, 9679.7578125, 0.10200000554323196, 0.8960000276565552, 0.3020000159740448, 192.0, 3.0, 48.0, 28.0, 0.0, 9.0, 112.0, 0.0, 0.0, 0.0, 1.6154792696453345E9, 2021-03-11 17:14:29.645
202.0, 187500.0, 187500.0, -20003.111328125, -19803.220703125, 7181.34716796875, -23361.998046875, 6168.20947265625, 8484.2080078125, 0.10200000554323196, 0.8960000276565552, 0.3020000159740448, 192.0, 0.0, 0.0, 0.0, 0.0, 0.0, 0.0, 0.0, 0.0, 0.0, 1.6154792696453404E9, 2021-03-11 17:14:29.645
203.0, 187500.0, 187500.0, -22051.3359375, -19771.369140625, 1986.1982421875, -23362.82421875, 4818.611328125, 7145.6064453125, 0.10200000554323196, 0.8960000276565552, 0.3020000159740448, 192.0, 0.0, 0.0, 0.0, 0.0, 0.0, 0.0, 0.0, 0.0, 0.0, 1.615479269645347E9, 2021-03-11 17:14:29.645
204.0, 187500.0, 187500.0, -21831.439453125, -19794.7265625, 250.13836669921875, -23356.90234375, 5291.68603515625, 7463.60498046875, 0.10200000554323196, 0.8960000276565552, 0.3020000159740448, 192.0, 0.0, 0.0, 0.0, 0.0, 0.0, 0.0, 0.0, 0.0, 0.0, 1.6154792696453538E9, 2021-03-11 17:14:29.645
205.0, 187500.0, 187500.0, -19790.591796875, -19834.580078125, 3970.653076171875, -23354.5546875, 6882.5263671875, 8990.228515625, 0.10200000554323196, 0.8960000276565552, 0.3020000159740448, 192.0, 0.0, 0.0, 0.0, 0.0, 0.0, 0.0, 0.0, 0.0, 0.0, 1.6154792696453595E9, 2021-03-11 17:14:29.645
206.0, 187500.0, 187500.0, -18426.642578125, -19848.6171875, 8685.1279296875, -23371.138671875, 7547.71435546875, 9653.0703125, 0.10200000554323196, 0.8960000276565552, 0.3020000159740448, 192.0, 0.0, 0.0, 0.0, 0.0, 0.0, 0.0, 0.0, 0.0, 0.0, 1.6154792696453671E9, 2021-03-11 17:14:29.645
207.0, 187500.0, 187500.0, -20047.97265625, -19810.88671875, 7079.892578125, -23374.068359375, 6124.9140625, 8423.34375, 0.10200000554323196, 0.8960000276565552, 0.3020000159740448, 192.0, 0.0, 0.0, 0.0, 0.0, 0.0, 0.0, 0.0, 0.0, 0.0, 1.615479269645373E9, 2021-03-11 17:14:29.645
208.0, 187500.0, 187500.0, -22064.388671875, -19789.228515625, 1930.94482421875, -23375.72265625, 4815.75, 7121.10888671875, 0.10200000554323196, 0.8960000276565552, 0.3020000159740448, 192.0, 0.0, 0.0, 0.0, 0.0, 0.0, 0.0, 0.0, 0.0, 0.0, 1.615479269645379E9, 2021-03-11 17:14:29.645
209.0, 187500.0, 187500.0, -21817.916015625, -19791.060546875, 263.1023864746094, -23347.759765625, 5319.02197265625, 7466.1083984375, 0.10200000554323196, 0.8960000276565552, 0.3020000159740448, 192.0, 0.0, 0.0, 0.0, 0.0, 0.0, 0.0, 0.0, 0.0, 0.0, 1.6154792696453848E9, 2021-03-11 17:14:29.645
210.0, 187500.0, 187500.0, -19764.685546875, -19826.98046875, 4029.415771484375, -23344.49609375, 6918.37890625, 9004.4892578125, 0.10200000554323196, 0.8960000276565552, 0.3020000159740448, 192.0, 0.0, 0.0, 0.0, 0.0, 0.0, 0.0, 0.0, 0.0, 0.0, 1.6154792696453905E9, 2021-03-11 17:14:29.645
211.0, 187500.0, 187500.0, -18426.666015625, -19852.796875, 8709.916015625, -23374.291015625, 7551.6708984375, 9660.4462890625, 0.10000000149011612, 0.9140000343322754, 0.2900000214576721, 192.0, 3.0, 32.0, 28.0, 144.0, 9.0, 16.0, 0.0, 0.0, 0.0, 1.6154792696453965E9, 2021-03-11 17:14:29.645
212.0, 187500.0, 187500.0, -20081.0078125, -19815.46875, 7007.45068359375, -23379.1640625, 6099.388671875, 8409.8662109375, 0.10000000149011612, 0.9140000343322754, 0.2900000214576721, 192.0, 0.0, 0.0, 0.0, 0.0, 0.0, 0.0, 0.0, 0.0, 0.0, 1.6154792696454027E9, 2021-03-11 17:14:29.645
213.0, 187500.0, 187500.0, -22062.109375, -19781.091796875, 1872.718505859375, -23368.166015625, 4819.66162109375, 7131.56982421875, 0.10000000149011612, 0.9140000343322754, 0.2900000214576721, 192.0, 0.0, 0.0, 0.0, 0.0, 0.0, 0.0, 0.0, 0.0, 0.0, 1.6154792696454082E9, 2021-03-11 17:14:29.645
214.0, 187500.0, 187500.0, -21760.875, -19787.751953125, 327.9671325683594, -23341.791015625, 5360.373046875, 7517.91943359375, 0.10000000149011612, 0.9140000343322754, 0.2900000214576721, 192.0, 0.0, 0.0, 0.0, 0.0, 0.0, 0.0, 0.0, 0.0, 0.0, 1.615479269645415E9, 2021-03-11 17:14:29.645
215.0, 187500.0, 187500.0, -19714.037109375, -19831.115234375, 4142.1357421875, -23350.552734375, 6938.07080078125, 9032.048828125, 0.10000000149011612, 0.9140000343322754, 0.2900000214576721, 192.0, 0.0, 0.0, 0.0, 0.0, 0.0, 0.0, 0.0, 0.0, 0.0, 1.6154792696454232E9, 2021-03-11 17:14:29.645
216.0, 187500.0, 187500.0, -18428.654296875, -19863.32421875, 8759.4697265625, -23390.876953125, 7527.8212890625, 9636.7529296875, 0.10000000149011612, 0.9140000343322754, 0.2900000214576721, 192.0, 0.0, 0.0, 0.0, 0.0, 0.0, 0.0, 0.0, 0.0, 0.0, 1.615479269645444E9, 2021-03-11 17:14:29.645
217.0, 187500.0, 187500.0, -20128.818359375, -19820.7890625, 6929.84521484375, -23388.171875, 6057.68017578125, 8356.69140625, 0.10000000149011612, 0.9140000343322754, 0.2900000214576721, 192.0, 0.0, 0.0, 0.0, 0.0, 0.0, 0.0, 0.0, 0.0, 0.0, 1.6154792696454468E9, 2021-03-11 17:14:29.645
218.0, 187500.0, 187500.0, -22094.67578125, -19787.037109375, 1788.7430419921875, -23377.2421875, 4796.08056640625, 7090.7109375, 0.10000000149011612, 0.9140000343322754, 0.2900000214576721, 192.0, 0.0, 0.0, 0.0, 0.0, 0.0, 0.0, 0.0, 0.0, 0.0, 1.6154792696454496E9, 2021-03-11 17:14:29.645
219.0, 187500.0, 187500.0, -21762.8203125, -19806.52734375, 314.8466491699219, -23364.8359375, 5355.18701171875, 7495.72412109375, 0.10000000149011612, 0.9140000343322754, 0.2900000214576721, 192.0, 0.0, 0.0, 0.0, 0.0, 0.0, 0.0, 0.0, 0.0, 0.0, 1.6154792696454523E9, 2021-03-11 17:14:29.645
220.0, 187500.0, 187500.0, -19674.2734375, -19839.697265625, 4229.35205078125, -23358.109375, 6961.65185546875, 9042.8896484375, 0.10000000149011612, 0.9140000343322754, 0.2900000214576721, 192.0, 0.0, 0.0, 0.0, 0.0, 0.0, 0.0, 0.0, 0.0, 0.0, 1.615479269645455E9, 2021-03-11 17:14:29.645
221.0, 187500.0, 187500.0, -18413.052734375, -19856.640625, 8820.154296875, -23378.404296875, 7536.35986328125, 9641.111328125, 0.10600000619888306, 0.9240000247955322, 0.28600001335144043, 192.0, 3.0, 80.0, 28.0, 224.0, 8.0, 240.0, 0.0, 0.0, 0.0, 1.6154792696454575E9, 2021-03-11 17:14:29.645
222.0, 187500.0, 187500.0, -20154.388671875, -19817.48046875, 6882.68310546875, -23378.046875, 6041.9443359375, 8349.962890625, 0.10600000619888306, 0.9240000247955322, 0.28600001335144043, 192.0, 0.0, 0.0, 0.0, 0.0, 0.0, 0.0, 0.0, 0.0, 0.0, 1.6154792696454604E9, 2021-03-11 17:14:29.645
223.0, 187500.0, 187500.0, -22107.4609375, -19794.078125, 1745.0452880859375, -23376.9296875, 4799.0087890625, 7095.80712890625, 0.10600000619888306, 0.9240000247955322, 0.28600001335144043, 192.0, 0.0, 0.0, 0.0, 0.0, 0.0, 0.0, 0.0, 0.0, 0.0, 1.6154792696454628E9, 2021-03-11 17:14:29.645
224.0, 187500.0, 187500.0, -21737.80859375, -19807.109375, 352.91168212890625, -23355.716796875, 5386.94921875, 7532.2470703125, 0.10600000619888306, 0.9240000247955322, 0.28600001335144043, 192.0, 0.0, 0.0, 0.0, 0.0, 0.0, 0.0, 0.0, 0.0, 0.0, 1.615479269645466E9, 2021-03-11 17:14:29.645
225.0, 187500.0, 187500.0, -19645.86328125, -19835.98828125, 4304.2978515625, -23342.775390625, 6988.0712890625, 9076.931640625, 0.10600000619888306, 0.9240000247955322, 0.28600001335144043, 192.0, 0.0, 0.0, 0.0, 0.0, 0.0, 0.0, 0.0, 0.0, 0.0, 1.6154792696454687E9, 2021-03-11 17:14:29.645
226.0, 187500.0, 187500.0, -18411.845703125, -19856.505859375, 8851.357421875, -23370.24609375, 7528.8046875, 9652.890625, 0.10600000619888306, 0.9240000247955322, 0.28600001335144043, 192.0, 0.0, 0.0, 0.0, 0.0, 0.0, 0.0, 0.0, 0.0, 0.0, 1.6154792696454713E9, 2021-03-11 17:14:29.645
227.0, 187500.0, 187500.0, -20169.69921875, -19808.607421875, 6842.71826171875, -23365.751953125, 6029.8076171875, 8351.3935546875, 0.10600000619888306, 0.9240000247955322, 0.28600001335144043, 192.0, 0.0, 0.0, 0.0, 0.0, 0.0, 0.0, 0.0, 0.0, 0.0, 1.615479269645474E9, 2021-03-11 17:14:29.645
228.0, 187500.0, 187500.0, -22098.69921875, -19773.6484375, 1717.0609130859375, -23352.005859375, 4808.10595703125, 7110.044921875, 0.10600000619888306, 0.9240000247955322, 0.28600001335144043, 192.0, 0.0, 0.0, 0.0, 0.0, 0.0, 0.0, 0.0, 0.0, 0.0, 1.6154792696454768E9, 2021-03-11 17:14:29.645
229.0, 187500.0, 187500.0, -21711.076171875, -19800.494140625, 386.70751953125, -23344.18359375, 5406.3056640625, 7553.72705078125, 0.10600000619888306, 0.9240000247955322, 0.28600001335144043, 192.0, 0.0, 0.0, 0.0, 0.0, 0.0, 0.0, 0.0, 0.0, 0.0, 1.6154792696454797E9, 2021-03-11 17:14:29.645
230.0, 187500.0, 187500.0, -19613.095703125, -19850.60546875, 4400.34326171875, -23351.939453125, 6997.79443359375, 9090.2978515625, 0.10600000619888306, 0.9240000247955322, 0.28600001335144043, 192.0, 0.0, 0.0, 0.0, 0.0, 0.0, 0.0, 0.0, 0.0, 0.0, 1.6154792696454828E9, 2021-03-11 17:14:29.645
231.0, 187500.0, 187500.0, -18429.99609375, -19872.466796875, 8873.2177734375, -23378.203125, 7507.6376953125, 9622.2919921875, 0.10400000214576721, 0.9260000586509705, 0.28200000524520874, 192.0, 3.0, 64.0, 28.0, 240.0, 8.0, 208.0, 0.0, 0.0, 0.0, 1.6154792696454852E9, 2021-03-11 17:14:29.645
232.0, 187500.0, 187500.0, -20209.015625, -19816.564453125, 6784.447265625, -23367.83203125, 6004.4384765625, 8312.748046875, 0.10400000214576721, 0.9260000586509705, 0.28200000524520874, 192.0, 0.0, 0.0, 0.0, 0.0, 0.0, 0.0, 0.0, 0.0, 0.0, 1.6154792696454885E9, 2021-03-11 17:14:29.645
233.0, 187500.0, 187500.0, -22122.705078125, -19790.3671875, 1657.6053466796875, -23370.06640625, 4790.26904296875, 7070.2587890625, 0.10400000214576721, 0.9260000586509705, 0.28200000524520874, 192.0, 0.0, 0.0, 0.0, 0.0, 0.0, 0.0, 0.0, 0.0, 0.0, 1.6154792696454911E9, 2021-03-11 17:14:29.645
234.0, 187500.0, 187500.0, -21689.103515625, -19810.060546875, 431.8580322265625, -23356.029296875, 5430.15478515625, 7556.431640625, 0.10400000214576721, 0.9260000586509705, 0.28200000524520874, 192.0, 0.0, 0.0, 0.0, 0.0, 0.0, 0.0, 0.0, 0.0, 0.0, 1.615479269645494E9, 2021-03-11 17:14:29.645
235.0, 187500.0, 187500.0, -19595.37109375, -19850.314453125, 4487.3134765625, -23359.13671875, 7016.3466796875, 9089.6044921875, 0.10400000214576721, 0.9260000586509705, 0.28200000524520874, 192.0, 0.0, 0.0, 0.0, 0.0, 0.0, 0.0, 0.0, 0.0, 0.0, 1.6154792696454964E9, 2021-03-11 17:14:29.645
236.0, 187500.0, 187500.0, -18443.02734375, -19870.0078125, 8898.921875, -23388.462890625, 7492.19287109375, 9613.4853515625, 0.10400000214576721, 0.9260000586509705, 0.28200000524520874, 192.0, 0.0, 0.0, 0.0, 0.0, 0.0, 0.0, 0.0, 0.0, 0.0, 1.6154792696454992E9, 2021-03-11 17:14:29.645
237.0, 187500.0, 187500.0, -20253.384765625, -19818.083984375, 6694.8837890625, -23379.857421875, 5967.4462890625, 8294.5751953125, 0.10400000214576721, 0.9260000586509705, 0.28200000524520874, 192.0, 0.0, 0.0, 0.0, 0.0, 0.0, 0.0, 0.0, 0.0, 0.0, 1.6154792696455023E9, 2021-03-11 17:14:29.645
238.0, 187500.0, 187500.0, -22126.83984375, -19788.625, 1604.0728759765625, -23373.330078125, 4789.21875, 7085.8154296875, 0.10400000214576721, 0.9260000586509705, 0.28200000524520874, 192.0, 0.0, 0.0, 0.0, 0.0, 0.0, 0.0, 0.0, 0.0, 0.0, 1.615479269645505E9, 2021-03-11 17:14:29.645
239.0, 187500.0, 187500.0, -21662.349609375, -19808.5625, 459.5965576171875, -23360.1875, 5448.259765625, 7586.025390625, 0.10400000214576721, 0.9260000586509705, 0.28200000524520874, 192.0, 0.0, 0.0, 0.0, 0.0, 0.0, 0.0, 0.0, 0.0, 0.0, 1.6154792696455076E9, 2021-03-11 17:14:29.645
240.0, 187500.0, 187500.0, -19564.212890625, -19842.134765625, 4549.33984375, -23356.365234375, 7037.62548828125, 9107.44140625, 0.10400000214576721, 0.9260000586509705, 0.28200000524520874, 192.0, 0.0, 0.0, 0.0, 0.0, 0.0, 0.0, 0.0, 0.0, 0.0, 1.6154792696455128E9, 2021-03-11 17:14:29.645
241.0, 187500.0, 187500.0, -18445.576171875, -19862.85546875, 8917.4296875, -23381.33203125, 7494.56201171875, 9608.9921875, 0.09800000488758087, 0.9220000505447388, 0.2880000174045563, 192.0, 3.0, 16.0, 28.0, 208.0, 9.0, 0.0, 0.0, 0.0, 0.0, 1.6154792696455157E9, 2021-03-11 17:14:29.645
242.0, 187500.0, 187500.0, -20303.49609375, -19818.107421875, 6599.7548828125, -23376.794921875, 5941.92041015625, 8266.5244140625, 0.09800000488758087, 0.9220000505447388, 0.2880000174045563, 192.0, 0.0, 0.0, 0.0, 0.0, 0.0, 0.0, 0.0, 0.0, 0.0, 1.615479269645518E9, 2021-03-11 17:14:29.645
243.0, 187500.0, 187500.0, -22171.857421875, -19798.68359375, 1489.9896240234375, -23381.95703125, 4770.64453125, 7059.39599609375, 0.09800000488758087, 0.9220000505447388, 0.2880000174045563, 192.0, 0.0, 0.0, 0.0, 0.0, 0.0, 0.0, 0.0, 0.0, 0.0, 1.6154792696455207E9, 2021-03-11 17:14:29.645
244.0, 187500.0, 187500.0, -21661.208984375, -19821.884765625, 437.1777648925781, -23370.759765625, 5466.2978515625, 7592.41796875, 0.09800000488758087, 0.9220000505447388, 0.2880000174045563, 192.0, 0.0, 0.0, 0.0, 0.0, 0.0, 0.0, 0.0, 0.0, 0.0, 1.6154792696455233E9, 2021-03-11 17:14:29.645
245.0, 187500.0, 187500.0, -19538.419921875, -19865.134765625, 4622.58642578125, -23374.068359375, 7056.69140625, 9128.072265625, 0.09800000488758087, 0.9220000505447388, 0.2880000174045563, 192.0, 0.0, 0.0, 0.0, 0.0, 0.0, 0.0, 0.0, 0.0, 0.0, 1.615479269645527E9, 2021-03-11 17:14:29.645
246.0, 187500.0, 187500.0, -18451.05078125, -19880.958984375, 8960.5908203125, -23398.900390625, 7482.4697265625, 9596.6318359375, 0.09800000488758087, 0.9220000505447388, 0.2880000174045563, 192.0, 0.0, 0.0, 0.0, 0.0, 0.0, 0.0, 0.0, 0.0, 0.0, 1.6154792696455293E9, 2021-03-11 17:14:29.645
247.0, 187500.0, 187500.0, -20345.0703125, -19828.0078125, 6540.3662109375, -23386.763671875, 5910.0693359375, 8217.7978515625, 0.09800000488758087, 0.9220000505447388, 0.2880000174045563, 192.0, 0.0, 0.0, 0.0, 0.0, 0.0, 0.0, 0.0, 0.0, 0.0, 1.615479269645532E9, 2021-03-11 17:14:29.645
248.0, 187500.0, 187500.0, -22185.4921875, -19798.19140625, 1447.0072021484375, -23379.0078125, 4768.029296875, 7035.83740234375, 0.09800000488758087, 0.9220000505447388, 0.2880000174045563, 192.0, 0.0, 0.0, 0.0, 0.0, 0.0, 0.0, 0.0, 0.0, 0.0, 1.6154792696455345E9, 2021-03-11 17:14:29.645
249.0, 187500.0, 187500.0, -21645.919921875, -19812.71875, 459.5295104980469, -23358.17578125, 5484.6708984375, 7600.173828125, 0.09800000488758087, 0.9220000505447388, 0.2880000174045563, 192.0, 0.0, 0.0, 0.0, 0.0, 0.0, 0.0, 0.0, 0.0, 0.0, 1.6154792696455379E9, 2021-03-11 17:14:29.645
250.0, 187500.0, 187500.0, -19517.474609375, -19851.455078125, 4678.97998046875, -23358.95703125, 7078.5068359375, 9140.0302734375, 0.09800000488758087, 0.9220000505447388, 0.2880000174045563, 192.0, 0.0, 0.0, 0.0, 0.0, 0.0, 0.0, 0.0, 0.0, 0.0, 1.6154792696455405E9, 2021-03-11 17:14:29.645
251.0, 187500.0, 187500.0, -18448.458984375, -19870.54296875, 8981.3779296875, -23386.65234375, 7486.15771484375, 9605.2822265625, 0.09000000357627869, 0.9120000600814819, 0.29200002551078796, 192.0, 2.0, 208.0, 28.0, 128.0, 9.0, 32.0, 0.0, 0.0, 0.0, 1.615479269645544E9, 2021-03-11 17:14:29.645
252.0, 187500.0, 187500.0, -20367.7578125, -19820.677734375, 6483.65966796875, -23383.052734375, 5895.853515625, 8213.3271484375, 0.09000000357627869, 0.9120000600814819, 0.29200002551078796, 192.0, 0.0, 0.0, 0.0, 0.0, 0.0, 0.0, 0.0, 0.0, 0.0, 1.6154792696455467E9, 2021-03-11 17:14:29.645
253.0, 187500.0, 187500.0, -22196.935546875, -19794.861328125, 1385.070556640625, -23378.537109375, 4763.447265625, 7030.18212890625, 0.09000000357627869, 0.9120000600814819, 0.29200002551078796, 192.0, 0.0, 0.0, 0.0, 0.0, 0.0, 0.0, 0.0, 0.0, 0.0, 1.6154792696455503E9, 2021-03-11 17:14:29.645
254.0, 187500.0, 187500.0, -21613.263671875, -19798.34765625, 496.2310485839844, -23346.6640625, 5517.32666015625, 7629.90185546875, 0.09000000357627869, 0.9120000600814819, 0.29200002551078796, 192.0, 0.0, 0.0, 0.0, 0.0, 0.0, 0.0, 0.0, 0.0, 0.0, 1.6154792696455529E9, 2021-03-11 17:14:29.645
255.0, 187500.0, 187500.0, -19466.22265625, -19828.8125, 4787.09521484375, -23339.82421875, 7115.49853515625, 9177.0673828125, 0.09000000357627869, 0.9120000600814819, 0.29200002551078796, 192.0, 0.0, 0.0, 0.0, 0.0, 0.0, 0.0, 0.0, 0.0, 0.0, 1.6154792696455555E9, 2021-03-11 17:14:29.645
0.0, 187500.0, 187500.0, -18446.380859375, -19848.50390625, 9011.41796875, -23370.111328125, 7482.91650390625, 9602.80078125, 0.09000000357627869, 0.9120000600814819, 0.29200002551078796, 192.0, 0.0, 0.0, 0.0, 0.0, 0.0, 0.0, 0.0, 0.0, 0.0, 1.6154792696455584E9, 2021-03-11 17:14:29.645
1.0, 187500.0, 187500.0, -20388.455078125, -19807.04296875, 6438.84423828125, -23369.865234375, 5886.4208984375, 8209.52734375, 0.09000000357627869, 0.9120000600814819, 0.29200002551078796, 192.0, 0.0, 0.0, 0.0, 0.0, 0.0, 0.0, 0.0, 0.0, 0.0, 1.6154792696455612E9, 2021-03-11 17:14:29.645
2.0, 187500.0, 187500.0, -22203.41796875, -19786.904296875, 1353.1522216796875, -23369.9765625, 4764.54248046875, 7036.865234375, 0.09000000357627869, 0.9120000600814819, 0.29200002551078796, 192.0, 0.0, 0.0, 0.0, 0.0, 0.0, 0.0, 0.0, 0.0, 0.0, 1.615479269645564E9, 2021-03-11 17:14:29.645
3.0, 187500.0, 187500.0, -21595.16015625, -19803.3984375, 528.5963745117188, -23352.85546875, 5538.69482421875, 7649.28076171875, 0.09000000357627869, 0.9120000600814819, 0.29200002551078796, 192.0, 0.0, 0.0, 0.0, 0.0, 0.0, 0.0, 0.0, 0.0, 0.0, 1.6154792696455665E9, 2021-03-11 17:14:29.645
4.0, 187500.0, 187500.0, -19441.234375, -19855.12109375, 4886.82861328125, -23369.888671875, 7125.2216796875, 9186.455078125, 0.09000000357627869, 0.9120000600814819, 0.29200002551078796, 192.0, 0.0, 0.0, 0.0, 0.0, 0.0, 0.0, 0.0, 0.0, 0.0, 1.615479269645569E9, 2021-03-11 17:14:29.645
5.0, 187500.0, 187500.0, -18484.490234375, -19874.41015625, 9003.953125, -23401.3359375, 7444.38232421875, 9561.8076171875, 0.09400000423192978, 0.9100000262260437, 0.2900000214576721, 192.0, 2.0, 240.0, 28.0, 112.0, 9.0, 16.0, 0.0, 0.0, 0.0, 1.6154792696455722E9, 2021-03-11 17:14:29.645
6.0, 187500.0, 187500.0, -20433.16015625, -19821.75, 6359.2724609375, -23390.51953125, 5855.77685546875, 8174.23388671875, 0.09400000423192978, 0.9100000262260437, 0.2900000214576721, 192.0, 0.0, 0.0, 0.0, 0.0, 0.0, 0.0, 0.0, 0.0, 0.0, 1.6154792696455748E9, 2021-03-11 17:14:29.645
7.0, 187500.0, 187500.0, -22215.287109375, -19802.392578125, 1314.4166259765625, -23389.154296875, 4758.93212890625, 7021.7109375, 0.09400000423192978, 0.9100000262260437, 0.2900000214576721, 192.0, 0.0, 0.0, 0.0, 0.0, 0.0, 0.0, 0.0, 0.0, 0.0, 1.61547926964558E9, 2021-03-11 17:14:29.645
8.0, 187500.0, 187500.0, -21582.642578125, -19834.310546875, 577.256103515625, -23383.544921875, 5544.52880859375, 7646.93359375, 0.09400000423192978, 0.9100000262260437, 0.2900000214576721, 192.0, 0.0, 0.0, 0.0, 0.0, 0.0, 0.0, 0.0, 0.0, 0.0, 1.615479269645583E9, 2021-03-11 17:14:29.645
9.0, 187500.0, 187500.0, -19423.173828125, -19864.5078125, 4971.38525390625, -23381.287109375, 7136.10693359375, 9182.1181640625, 0.09400000423192978, 0.9100000262260437, 0.2900000214576721, 192.0, 0.0, 0.0, 0.0, 0.0, 0.0, 0.0, 0.0, 0.0, 0.0, 1.6154792696455853E9, 2021-03-11 17:14:29.645
10.0, 187500.0, 187500.0, -18504.875, -19869.291015625, 8998.4765625, -23395.591796875, 7427.01513671875, 9538.94140625, 0.09400000423192978, 0.9100000262260437, 0.2900000214576721, 192.0, 0.0, 0.0, 0.0, 0.0, 0.0, 0.0, 0.0, 0.0, 0.0, 1.615479269645588E9, 2021-03-11 17:14:29.645
11.0, 187500.0, 187500.0, -20494.8046875, -19824.4765625, 6225.60888671875, -23393.201171875, 5816.16943359375, 8130.7373046875, 0.09400000423192978, 0.9100000262260437, 0.2900000214576721, 192.0, 0.0, 0.0, 0.0, 0.0, 0.0, 0.0, 0.0, 0.0, 0.0, 1.615479269645592E9, 2021-03-11 17:14:29.645
12.0, 187500.0, 187500.0, -22232.095703125, -19801.65625, 1218.035888671875, -23385.802734375, 4761.54736328125, 7014.96044921875, 0.09400000423192978, 0.9100000262260437, 0.2900000214576721, 192.0, 0.0, 0.0, 0.0, 0.0, 0.0, 0.0, 0.0, 0.0, 0.0, 1.6154792696455953E9, 2021-03-11 17:14:29.645
13.0, 187500.0, 187500.0, -21546.96875, -19819.6484375, 600.7254638671875, -23367.138671875, 5590.640625, 7687.7705078125, 0.09400000423192978, 0.9100000262260437, 0.2900000214576721, 192.0, 0.0, 0.0, 0.0, 0.0, 0.0, 0.0, 0.0, 0.0, 0.0, 1.6154792696455984E9, 2021-03-11 17:14:29.645
14.0, 187500.0, 187500.0, -19388.103515625, -19852.70703125, 5048.6552734375, -23365.88671875, 7175.31201171875, 9218.6640625, 0.09400000423192978, 0.9100000262260437, 0.2900000214576721, 192.0, 0.0, 0.0, 0.0, 0.0, 0.0, 0.0, 0.0, 0.0, 0.0, 1.6154792696456008E9, 2021-03-11 17:14:29.645
15.0, 187500.0, 187500.0, -18523.5390625, -19874.076171875, 9015.330078125, -23399.03515625, 7417.15771484375, 9537.6455078125, 0.09600000083446503, 0.9100000262260437, 0.2880000174045563, 192.0, 3.0, 0.0, 28.0, 112.0, 9.0, 0.0, 0.0, 0.0, 0.0, 1.615479269645604E9, 2021-03-11 17:14:29.645
16.0, 187500.0, 187500.0, -20535.12890625, -19831.62890625, 6163.359375, -23399.97265625, 5786.41943359375, 8115.20263671875, 0.09600000083446503, 0.9100000262260437, 0.2880000174045563, 192.0, 0.0, 0.0, 0.0, 0.0, 0.0, 0.0, 0.0, 0.0, 0.0, 1.6154792696456075E9, 2021-03-11 17:14:29.645
17.0, 187500.0, 187500.0, -22246.33203125, -19804.0703125, 1185.9835205078125, -23392.888671875, 4750.21484375, 7006.42236328125, 0.09600000083446503, 0.9100000262260437, 0.2880000174045563, 192.0, 0.0, 0.0, 0.0, 0.0, 0.0, 0.0, 0.0, 0.0, 0.0, 1.615479269645611E9, 2021-03-11 17:14:29.645
18.0, 187500.0, 187500.0, -21527.65625, -19813.501953125, 632.0849609375, -23362.736328125, 5601.48095703125, 7698.1416015625, 0.09600000083446503, 0.9100000262260437, 0.2880000174045563, 192.0, 0.0, 0.0, 0.0, 0.0, 0.0, 0.0, 0.0, 0.0, 0.0, 1.6154792696456308E9, 2021-03-11 17:14:29.645
19.0, 187500.0, 187500.0, -19351.15625, -19851.611328125, 5129.0771484375, -23363.986328125, 7191.06982421875, 9233.7958984375, 0.09600000083446503, 0.9100000262260437, 0.2880000174045563, 192.0, 0.0, 0.0, 0.0, 0.0, 0.0, 0.0, 0.0, 0.0, 0.0, 1.6154792696456356E9, 2021-03-11 17:14:29.645
20.0, 187500.0, 187500.0, -18510.126953125, -19860.57421875, 9037.6591796875, -23388.5078125, 7418.2978515625, 9532.3701171875, 0.09600000083446503, 0.9100000262260437, 0.2880000174045563, 192.0, 0.0, 0.0, 0.0, 0.0, 0.0, 0.0, 0.0, 0.0, 0.0, 1.6154792696456387E9, 2021-03-11 17:14:29.645
21.0, 187500.0, 187500.0, -20550.05859375, -19813.0546875, 6092.7275390625, -23382.404296875, 5781.56884765625, 8094.5947265625, 0.09600000083446503, 0.9100000262260437, 0.2880000174045563, 192.0, 0.0, 0.0, 0.0, 0.0, 0.0, 0.0, 0.0, 0.0, 0.0, 1.6154792696456425E9, 2021-03-11 17:14:29.645
22.0, 187500.0, 187500.0, -22225.634765625, -19787.216796875, 1154.33349609375, -23371.51953125, 4776.54541015625, 7021.5322265625, 0.09600000083446503, 0.9100000262260437, 0.2880000174045563, 192.0, 0.0, 0.0, 0.0, 0.0, 0.0, 0.0, 0.0, 0.0, 0.0, 1.615479269645646E9, 2021-03-11 17:14:29.645
23.0, 187500.0, 187500.0, -21486.529296875, -19814.6640625, 690.6241455078125, -23362.69140625, 5637.86962890625, 7725.544921875, 0.09600000083446503, 0.9100000262260437, 0.2880000174045563, 192.0, 0.0, 0.0, 0.0, 0.0, 0.0, 0.0, 0.0, 0.0, 0.0, 1.6154792696456592E9, 2021-03-11 17:14:29.645
24.0, 187500.0, 187500.0, -19313.001953125, -19871.03515625, 5249.396484375, -23386.048828125, 7208.03515625, 9251.3193359375, 0.09600000083446503, 0.9100000262260437, 0.2880000174045563, 192.0, 0.0, 0.0, 0.0, 0.0, 0.0, 0.0, 0.0, 0.0, 0.0, 1.6154792696456623E9, 2021-03-11 17:14:29.645
25.0, 187500.0, 187500.0, -18548.505859375, -19883.931640625, 9039.08984375, -23412.9375, 7375.85205078125, 9489.90234375, 0.10200000554323196, 0.9140000343322754, 0.2840000092983246, 192.0, 3.0, 48.0, 28.0, 144.0, 8.0, 224.0, 0.0, 0.0, 0.0, 1.615479269645666E9, 2021-03-11 17:14:29.645
26.0, 187500.0, 187500.0, -20605.111328125, -19828.27734375, 6007.0087890625, -23399.548828125, 5738.67626953125, 8049.623046875, 0.10200000554323196, 0.9140000343322754, 0.2840000092983246, 192.0, 0.0, 0.0, 0.0, 0.0, 0.0, 0.0, 0.0, 0.0, 0.0, 1.6154792696456695E9, 2021-03-11 17:14:29.645
27.0, 187500.0, 187500.0, -22255.294921875, -19803.421875, 1100.1751708984375, -23390.80859375, 4753.232421875, 6998.59912109375, 0.10200000554323196, 0.9140000343322754, 0.2840000092983246, 192.0, 0.0, 0.0, 0.0, 0.0, 0.0, 0.0, 0.0, 0.0, 0.0, 1.6154792696456726E9, 2021-03-11 17:14:29.645
28.0, 187500.0, 187500.0, -21464.201171875, -19823.203125, 752.3820190429688, -23367.83203125, 5647.03369140625, 7748.58935546875, 0.10200000554323196, 0.9140000343322754, 0.2840000092983246, 192.0, 0.0, 0.0, 0.0, 0.0, 0.0, 0.0, 0.0, 0.0, 0.0, 1.615479269645677E9, 2021-03-11 17:14:29.645
29.0, 187500.0, 187500.0, -19287.833984375, -19859.255859375, 5346.291015625, -23369.91015625, 7209.1748046875, 9261.6904296875, 0.10200000554323196, 0.9140000343322754, 0.2840000092983246, 192.0, 0.0, 0.0, 0.0, 0.0, 0.0, 0.0, 0.0, 0.0, 0.0, 1.615479269645681E9, 2021-03-11 17:14:29.645
30.0, 187500.0, 187500.0, -18566.6328125, -19861.177734375, 9028.2939453125, -23382.986328125, 7347.66650390625, 9473.3623046875, 0.10200000554323196, 0.9140000343322754, 0.2840000092983246, 192.0, 0.0, 0.0, 0.0, 0.0, 0.0, 0.0, 0.0, 0.0, 0.0, 1.6154792696456885E9, 2021-03-11 17:14:29.645
31.0, 187500.0, 187500.0, -20635.666015625, -19814.1953125, 5914.36083984375, -23376.59375, 5712.5244140625, 8037.75390625, 0.10200000554323196, 0.9140000343322754, 0.2840000092983246, 192.0, 0.0, 0.0, 0.0, 0.0, 0.0, 0.0, 0.0, 0.0, 0.0, 1.6154792696456928E9, 2021-03-11 17:14:29.645
32.0, 187500.0, 187500.0, -22234.84375, -19800.494140625, 1073.57666015625, -23381.353515625, 4765.10107421875, 7019.85546875, 0.10200000554323196, 0.9140000343322754, 0.2840000092983246, 192.0, 0.0, 0.0, 0.0, 0.0, 0.0, 0.0, 0.0, 0.0, 0.0, 1.6154792696456962E9, 2021-03-11 17:14:29.645
33.0, 187500.0, 187500.0, -21404.521484375, -19819.873046875, 841.9007568359375, -23360.5, 5688.3623046875, 7787.57080078125, 0.10200000554323196, 0.9140000343322754, 0.2840000092983246, 192.0, 0.0, 0.0, 0.0, 0.0, 0.0, 0.0, 0.0, 0.0, 0.0, 1.6154792696456995E9, 2021-03-11 17:14:29.645
34.0, 187500.0, 187500.0, -19252.98828125, -19862.810546875, 5446.0693359375, -23373.150390625, 7227.97265625, 9269.2900390625, 0.10200000554323196, 0.9140000343322754, 0.2840000092983246, 192.0, 0.0, 0.0, 0.0, 0.0, 0.0, 0.0, 0.0, 0.0, 0.0, 1.6154792696457028E9, 2021-03-11 17:14:29.645
35.0, 187500.0, 187500.0, -18593.9453125, -19859.435546875, 9012.4912109375, -23382.740234375, 7323.28076171875, 9448.775390625, 0.10400000214576721, 0.9200000166893005, 0.27800002694129944, 192.0, 3.0, 64.0, 28.0, 192.0, 8.0, 176.0, 0.0, 0.0, 0.0, 1.6154792696457076E9, 2021-03-11 17:14:29.645
36.0, 187500.0, 187500.0, -20683.208984375, -19812.787109375, 5804.83740234375, -23376.884765625, 5682.3271484375, 8015.6484375, 0.10400000214576721, 0.9200000166893005, 0.27800002694129944, 192.0, 0.0, 0.0, 0.0, 0.0, 0.0, 0.0, 0.0, 0.0, 0.0, 1.6154792696457105E9, 2021-03-11 17:14:29.645
37.0, 187500.0, 187500.0, -22253.396484375, -19796.759765625, 985.1307373046875, -23376.1015625, 4762.44140625, 7020.1015625, 0.10400000214576721, 0.9200000166893005, 0.27800002694129944, 192.0, 0.0, 0.0, 0.0, 0.0, 0.0, 0.0, 0.0, 0.0, 0.0, 1.615479269645713E9, 2021-03-11 17:14:29.645
38.0, 187500.0, 187500.0, -21371.150390625, -19819.24609375, 870.8015747070312, -23354.041015625, 5720.7724609375, 7830.2626953125, 0.10400000214576721, 0.9200000166893005, 0.27800002694129944, 192.0, 0.0, 0.0, 0.0, 0.0, 0.0, 0.0, 0.0, 0.0, 0.0, 1.615479269645718E9, 2021-03-11 17:14:29.645
39.0, 187500.0, 187500.0, -19205.78125, -19856.775390625, 5539.11962890625, -23360.1875, 7256.2255859375, 9304.2490234375, 0.10400000214576721, 0.9200000166893005, 0.27800002694129944, 192.0, 0.0, 0.0, 0.0, 0.0, 0.0, 0.0, 0.0, 0.0, 0.0, 1.615479269788156E9, 2021-03-11 17:14:29.788
40.0, 187500.0, 187500.0, -18590.458984375, -19870.767578125, 9027.4892578125, -23389.35546875, 7305.06396484375, 9439.5439453125, 0.10400000214576721, 0.9200000166893005, 0.27800002694129944, 192.0, 0.0, 0.0, 0.0, 0.0, 0.0, 0.0, 0.0, 0.0, 0.0, 1.6154792697881892E9, 2021-03-11 17:14:29.788
41.0, 187500.0, 187500.0, -20708.2421875, -19817.994140625, 5720.3251953125, -23377.46484375, 5650.43115234375, 7987.08251953125, 0.10400000214576721, 0.9200000166893005, 0.27800002694129944, 192.0, 0.0, 0.0, 0.0, 0.0, 0.0, 0.0, 0.0, 0.0, 0.0, 1.615479269788192E9, 2021-03-11 17:14:29.788
42.0, 187500.0, 187500.0, -22236.765625, -19800.224609375, 964.1424560546875, -23373.576171875, 4768.0517578125, 7017.4638671875, 0.10400000214576721, 0.9200000166893005, 0.27800002694129944, 192.0, 0.0, 0.0, 0.0, 0.0, 0.0, 0.0, 0.0, 0.0, 0.0, 1.6154792697881944E9, 2021-03-11 17:14:29.788
43.0, 187500.0, 187500.0, -21329.30859375, -19824.677734375, 927.64208984375, -23358.15234375, 5741.1123046875, 7835.873046875, 0.10400000214576721, 0.9200000166893005, 0.27800002694129944, 192.0, 0.0, 0.0, 0.0, 0.0, 0.0, 0.0, 0.0, 0.0, 0.0, 1.6154792697881975E9, 2021-03-11 17:14:29.788
44.0, 187500.0, 187500.0, -19171.58203125, -19868.666015625, 5635.25439453125, -23370.669921875, 7269.30126953125, 9297.8115234375, 0.10400000214576721, 0.9200000166893005, 0.27800002694129944, 192.0, 0.0, 0.0, 0.0, 0.0, 0.0, 0.0, 0.0, 0.0, 0.0, 1.6154792697882004E9, 2021-03-11 17:14:29.788
45.0, 187500.0, 187500.0, -18610.30859375, -19873.6953125, 9036.228515625, -23386.451171875, 7292.01025390625, 9406.5751953125, 0.09600000083446503, 0.9280000329017639, 0.2760000228881836, 192.0, 3.0, 0.0, 29.0, 0.0, 8.0, 160.0, 0.0, 0.0, 0.0, 1.6154792697882056E9, 2021-03-11 17:14:29.788
46.0, 187500.0, 187500.0, -20769.6640625, -19824.90234375, 5611.65087890625, -23376.951171875, 5626.53759765625, 7941.77587890625, 0.09600000083446503, 0.9280000329017639, 0.2760000228881836, 192.0, 0.0, 0.0, 0.0, 0.0, 0.0, 0.0, 0.0, 0.0, 0.0, 1.61547926978821E9, 2021-03-11 17:14:29.788
47.0, 187500.0, 187500.0, -22262.046875, -19812.98828125, 885.6878662109375, -23380.080078125, 4774.28759765625, 7015.20654296875, 0.09600000083446503, 0.9280000329017639, 0.2760000228881836, 192.0, 0.0, 0.0, 0.0, 0.0, 0.0, 0.0, 0.0, 0.0, 0.0, 1.6154792697882135E9, 2021-03-11 17:14:29.788
48.0, 187500.0, 187500.0, -21295.66796875, -19825.03515625, 988.952880859375, -23349.771484375, 5789.36962890625, 7889.2490234375, 0.09600000083446503, 0.9280000329017639, 0.2760000228881836, 192.0, 0.0, 0.0, 0.0, 0.0, 0.0, 0.0, 0.0, 0.0, 0.0, 1.6154792697882166E9, 2021-03-11 17:14:29.788
49.0, 187500.0, 187500.0, -19140.916015625, -19850.0703125, 5734.294921875, -23347.044921875, 7307.1650390625, 9339.2734375, 0.09600000083446503, 0.9280000329017639, 0.2760000228881836, 192.0, 0.0, 0.0, 0.0, 0.0, 0.0, 0.0, 0.0, 0.0, 0.0, 1.6154792697882192E9, 2021-03-11 17:14:29.788
50.0, 187500.0, 187500.0, -18629.26171875, -19859.703125, 9036.9443359375, -23370.580078125, 7283.5166015625, 9417.4375, 0.09600000083446503, 0.9280000329017639, 0.2760000228881836, 192.0, 0.0, 0.0, 0.0, 0.0, 0.0, 0.0, 0.0, 0.0, 0.0, 1.6154792697882216E9, 2021-03-11 17:14:29.788
51.0, 187500.0, 187500.0, -20799.951171875, -19815.021484375, 5547.30029296875, -23366.490234375, 5613.3720703125, 7946.31298828125, 0.09600000083446503, 0.9280000329017639, 0.2760000228881836, 192.0, 0.0, 0.0, 0.0, 0.0, 0.0, 0.0, 0.0, 0.0, 0.0, 1.6154792697882245E9, 2021-03-11 17:14:29.788
52.0, 187500.0, 187500.0, -22260.525390625, -19799.353515625, 872.813232421875, -23365.8203125, 4788.9951171875, 7038.96630859375, 0.09600000083446503, 0.9280000329017639, 0.2760000228881836, 192.0, 0.0, 0.0, 0.0, 0.0, 0.0, 0.0, 0.0, 0.0, 0.0, 1.615479269788227E9, 2021-03-11 17:14:29.788
53.0, 187500.0, 187500.0, -21284.939453125, -19828.96875, 1025.58740234375, -23356.8125, 5800.97021484375, 7910.93017578125, 0.09600000083446503, 0.9280000329017639, 0.2760000228881836, 192.0, 0.0, 0.0, 0.0, 0.0, 0.0, 0.0, 0.0, 0.0, 0.0, 1.6154792697882533E9, 2021-03-11 17:14:29.788
54.0, 187500.0, 187500.0, -19122.67578125, -19862.33984375, 5810.98388671875, -23359.6953125, 7306.7626953125, 9355.0537109375, 0.10000000149011612, 0.9240000247955322, 0.2800000011920929, 192.0, 3.0, 32.0, 28.0, 224.0, 8.0, 192.0, 0.0, 0.0, 0.0, 1.615479269788256E9, 2021-03-11 17:14:29.788
55.0, 187500.0, 187500.0, -18668.154296875, -19859.79296875, 8984.931640625, -23374.8046875, 7246.546875, 9389.1630859375, 0.10000000149011612, 0.9240000247955322, 0.2800000011920929, 192.0, 0.0, 0.0, 0.0, 0.0, 0.0, 0.0, 0.0, 0.0, 0.0, 1.6154792697882588E9, 2021-03-11 17:14:29.788
56.0, 187500.0, 187500.0, -20827.154296875, -19811.580078125, 5444.14697265625, -23364.76953125, 5594.4404296875, 7938.8701171875, 0.10000000149011612, 0.9240000247955322, 0.2800000011920929, 192.0, 0.0, 0.0, 0.0, 0.0, 0.0, 0.0, 0.0, 0.0, 0.0, 1.6154792697882612E9, 2021-03-11 17:14:29.788
57.0, 187500.0, 187500.0, -22241.37109375, -19796.984375, 839.7103271484375, -23359.78515625, 4804.171875, 7063.888671875, 0.10000000149011612, 0.9240000247955322, 0.2800000011920929, 192.0, 0.0, 0.0, 0.0, 0.0, 0.0, 0.0, 0.0, 0.0, 0.0, 1.6154792697882636E9, 2021-03-11 17:14:29.788
58.0, 187500.0, 187500.0, -21228.009765625, -19833.373046875, 1102.0303955078125, -23351.40234375, 5836.5322265625, 7950.0234375, 0.10000000149011612, 0.9240000247955322, 0.2800000011920929, 192.0, 0.0, 0.0, 0.0, 0.0, 0.0, 0.0, 0.0, 0.0, 0.0, 1.615479269788266E9, 2021-03-11 17:14:29.788
59.0, 187500.0, 187500.0, -19074.28515625, -19883.26171875, 5934.11962890625, -23370.9375, 7321.1796875, 9372.041015625, 0.10000000149011612, 0.9240000247955322, 0.2800000011920929, 192.0, 0.0, 0.0, 0.0, 0.0, 0.0, 0.0, 0.0, 0.0, 0.0, 1.6154792697882683E9, 2021-03-11 17:14:29.788
60.0, 187500.0, 187500.0, -18691.33203125, -19878.8359375, 8991.681640625, -23383.09765625, 7213.8466796875, 9350.94140625, 0.10000000149011612, 0.9240000247955322, 0.2800000011920929, 192.0, 0.0, 0.0, 0.0, 0.0, 0.0, 0.0, 0.0, 0.0, 0.0, 1.6154792697882707E9, 2021-03-11 17:14:29.788
61.0, 187500.0, 187500.0, -20876.4609375, -19823.0234375, 5348.83935546875, -23363.048828125, 5560.73388671875, 7889.00341796875, 0.10000000149011612, 0.9240000247955322, 0.2800000011920929, 192.0, 0.0, 0.0, 0.0, 0.0, 0.0, 0.0, 0.0, 0.0, 0.0, 1.6154792697882729E9, 2021-03-11 17:14:29.788
62.0, 187500.0, 187500.0, -22237.7265625, -19805.521484375, 807.9931640625, -23354.64453125, 4811.27978515625, 7063.888671875, 0.10000000149011612, 0.9240000247955322, 0.2800000011920929, 192.0, 0.0, 0.0, 0.0, 0.0, 0.0, 0.0, 0.0, 0.0, 0.0, 1.6154792697882752E9, 2021-03-11 17:14:29.788
63.0, 187500.0, 187500.0, -21180.78125, -19830.9140625, 1180.350830078125, -23341.703125, 5875.06640625, 7994.2353515625, 0.10000000149011612, 0.9240000247955322, 0.2800000011920929, 192.0, 0.0, 0.0, 0.0, 0.0, 0.0, 0.0, 0.0, 0.0, 0.0, 1.6154792697882776E9, 2021-03-11 17:14:29.788
64.0, 187500.0, 187500.0, -19026.408203125, -19874.208984375, 6049.67822265625, -23360.544921875, 7349.9013671875, 9405.904296875, 0.10600000619888306, 0.9200000166893005, 0.28600001335144043, 192.0, 3.0, 80.0, 28.0, 192.0, 8.0, 240.0, 0.0, 0.0, 0.0, 1.61547926978828E9, 2021-03-11 17:14:29.788
65.0, 187500.0, 187500.0, -18696.71875, -19882.859375, 9005.025390625, -23389.37890625, 7193.10400390625, 9344.8388671875, 0.10600000619888306, 0.9200000166893005, 0.28600001335144043, 192.0, 0.0, 0.0, 0.0, 0.0, 0.0, 0.0, 0.0, 0.0, 0.0, 1.615479269788282E9, 2021-03-11 17:14:29.788
66.0, 187500.0, 187500.0, -20912.447265625, -19831.49609375, 5272.70947265625, -23372.189453125, 5526.35693359375, 7861.5107421875, 0.10600000619888306, 0.9200000166893005, 0.28600001335144043, 192.0, 0.0, 0.0, 0.0, 0.0, 0.0, 0.0, 0.0, 0.0, 0.0, 1.6154792697882843E9, 2021-03-11 17:14:29.788
67.0, 187500.0, 187500.0, -22248.388671875, -19809.388671875, 759.065185546875, -23358.265625, 4808.32958984375, 7046.14111328125, 0.10600000619888306, 0.9200000166893005, 0.28600001335144043, 192.0, 0.0, 0.0, 0.0, 0.0, 0.0, 0.0, 0.0, 0.0, 0.0, 1.6154792697882867E9, 2021-03-11 17:14:29.788
68.0, 187500.0, 187500.0, -21154.5625, -19833.505859375, 1216.8289794921875, -23339.869140625, 5895.8759765625, 8009.61328125, 0.10600000619888306, 0.9200000166893005, 0.28600001335144043, 192.0, 0.0, 0.0, 0.0, 0.0, 0.0, 0.0, 0.0, 0.0, 0.0, 1.615479269788289E9, 2021-03-11 17:14:29.788
69.0, 187500.0, 187500.0, -18999.33984375, -19874.208984375, 6132.02197265625, -23353.19140625, 7371.85107421875, 9423.3388671875, 0.10600000619888306, 0.9200000166893005, 0.28600001335144043, 192.0, 0.0, 0.0, 0.0, 0.0, 0.0, 0.0, 0.0, 0.0, 0.0, 1.6154792697882912E9, 2021-03-11 17:14:29.788
70.0, 187500.0, 187500.0, -18719.919921875, -19866.275390625, 8976.5947265625, -23363.025390625, 7185.99609375, 9332.0322265625, 0.10600000619888306, 0.9200000166893005, 0.28600001335144043, 192.0, 0.0, 0.0, 0.0, 0.0, 0.0, 0.0, 0.0, 0.0, 0.0, 1.6154792697882936E9, 2021-03-11 17:14:29.788
71.0, 187500.0, 187500.0, -20939.671875, -19819.873046875, 5166.89599609375, -23354.5546875, 5517.19287109375, 7847.49609375, 0.10600000619888306, 0.9200000166893005, 0.28600001335144043, 192.0, 0.0, 0.0, 0.0, 0.0, 0.0, 0.0, 0.0, 0.0, 0.0, 1.615479269788296E9, 2021-03-11 17:14:29.788
72.0, 187500.0, 187500.0, -22241.83984375, -19812.40625, 712.1041870117188, -23355.94140625, 4817.71728515625, 7052.8466796875, 0.10600000619888306, 0.9200000166893005, 0.28600001335144043, 192.0, 0.0, 0.0, 0.0, 0.0, 0.0, 0.0, 0.0, 0.0, 0.0, 1.6154792697882981E9, 2021-03-11 17:14:29.788
73.0, 187500.0, 187500.0, -21138.021484375, -19852.259765625, 1239.9853515625, -23355.806640625, 5910.11376953125, 8010.619140625, 0.10600000619888306, 0.9200000166893005, 0.28600001335144043, 192.0, 0.0, 0.0, 0.0, 0.0, 0.0, 0.0, 0.0, 0.0, 0.0, 1.6154792702601464E9, 2021-03-11 17:14:30.260
74.0, 187500.0, 187500.0, -18980.654296875, -19886.501953125, 6183.6767578125, -23366.19921875, 7377.7294921875, 9414.822265625, 0.10600000619888306, 0.9120000600814819, 0.2880000174045563, 192.0, 3.0, 80.0, 28.0, 128.0, 9.0, 0.0, 0.0, 0.0, 0.0, 1.6154792702602637E9, 2021-03-11 17:14:30.260
76.0, 187500.0, 187500.0, -20961.666015625, -19829.39453125, 5098.2763671875, -23362.466796875, 5506.0166015625, 7843.20458984375, 0.10600000619888306, 0.9120000600814819, 0.2880000174045563, 192.0, 0.0, 0.0, 0.0, 0.0, 0.0, 0.0, 0.0, 0.0, 0.0, 1.615479270260414E9, 2021-03-11 17:14:30.260
77.0, 187500.0, 187500.0, -22238.7109375, -19826.845703125, 695.8097534179688, -23370.78125, 4829.25048828125, 7063.62060546875, 0.10600000619888306, 0.9120000600814819, 0.2880000174045563, 192.0, 0.0, 0.0, 0.0, 0.0, 0.0, 0.0, 0.0, 0.0, 0.0, 1.6154792702604225E9, 2021-03-11 17:14:30.260
78.0, 187500.0, 187500.0, -21108.47265625, -19863.81640625, 1303.911376953125, -23364.009765625, 5933.33740234375, 8036.837890625, 0.10600000619888306, 0.9120000600814819, 0.2880000174045563, 192.0, 0.0, 0.0, 0.0, 0.0, 0.0, 0.0, 0.0, 0.0, 0.0, 1.6154792702605193E9, 2021-03-11 17:14:30.260
79.0, 187500.0, 187500.0, -18955.486328125, -19895.265625, 6279.029296875, -23370.759765625, 7392.9287109375, 9426.333984375, 0.10600000619888306, 0.9120000600814819, 0.2880000174045563, 192.0, 0.0, 0.0, 0.0, 0.0, 0.0, 0.0, 0.0, 0.0, 0.0, 1.6154792702605288E9, 2021-03-11 17:14:30.260
80.0, 187500.0, 187500.0, -18779.95703125, -19882.63671875, 8911.595703125, -23380.548828125, 7133.8720703125, 9273.7158203125, 0.10600000619888306, 0.9120000600814819, 0.2880000174045563, 192.0, 0.0, 0.0, 0.0, 0.0, 0.0, 0.0, 0.0, 0.0, 0.0, 1.615479270260534E9, 2021-03-11 17:14:30.260
81.0, 187500.0, 187500.0, -21021.970703125, -19832.970703125, 4970.22314453125, -23367.65234375, 5475.59619140625, 7802.63623046875, 0.10600000619888306, 0.9120000600814819, 0.2880000174045563, 192.0, 0.0, 0.0, 0.0, 0.0, 0.0, 0.0, 0.0, 0.0, 0.0, 1.6154792702605376E9, 2021-03-11 17:14:30.260
83.0, 187500.0, 187500.0, -21066.384765625, -19852.349609375, 1374.6993408203125, -23353.4140625, 5977.2587890625, 8061.0224609375, 0.10600000619888306, 0.9120000600814819, 0.2880000174045563, 192.0, 0.0, 0.0, 0.0, 0.0, 0.0, 0.0, 0.0, 0.0, 0.0, 1.615479270260542E9, 2021-03-11 17:14:30.260
84.0, 187500.0, 187500.0, -18940.533203125, -19893.296875, 6339.2451171875, -23370.4921875, 7400.6845703125, 9411.939453125, 0.1080000028014183, 0.9140000343322754, 0.28200000524520874, 192.0, 3.0, 96.0, 28.0, 144.0, 8.0, 208.0, 0.0, 0.0, 0.0, 1.6154792702605453E9, 2021-03-11 17:14:30.260
85.0, 187500.0, 187500.0, -18812.92578125, -19887.12890625, 8869.08203125, -23389.916015625, 7100.8134765625, 9231.2255859375, 0.1080000028014183, 0.9140000343322754, 0.28200000524520874, 192.0, 0.0, 0.0, 0.0, 0.0, 0.0, 0.0, 0.0, 0.0, 0.0, 1.6154792702605536E9, 2021-03-11 17:14:30.260
86.0, 187500.0, 187500.0, -21056.9296875, -19831.294921875, 4879.7431640625, -23371.564453125, 5450.673828125, 7764.39208984375, 0.1080000028014183, 0.9140000343322754, 0.28200000524520874, 192.0, 0.0, 0.0, 0.0, 0.0, 0.0, 0.0, 0.0, 0.0, 0.0, 1.6154792702605577E9, 2021-03-11 17:14:30.260
87.0, 187500.0, 187500.0, -22234.53125, -19824.521484375, 621.9595947265625, -23368.994140625, 4851.8037109375, 7071.6669921875, 0.1080000028014183, 0.9140000343322754, 0.28200000524520874, 192.0, 0.0, 0.0, 0.0, 0.0, 0.0, 0.0, 0.0, 0.0, 0.0, 1.6154792702605667E9, 2021-03-11 17:14:30.260
88.0, 187500.0, 187500.0, -21020.5859375, -19854.361328125, 1466.0732421875, -23356.767578125, 6007.34423828125, 8100.80810546875, 0.1080000028014183, 0.9140000343322754, 0.28200000524520874, 192.0, 0.0, 0.0, 0.0, 0.0, 0.0, 0.0, 0.0, 0.0, 0.0, 1.6154792702605703E9, 2021-03-11 17:14:30.260
89.0, 187500.0, 187500.0, -18893.59375, -19883.59765625, 6471.5224609375, -23362.6015625, 7422.6787109375, 9446.3837890625, 0.1080000028014183, 0.9140000343322754, 0.28200000524520874, 192.0, 0.0, 0.0, 0.0, 0.0, 0.0, 0.0, 0.0, 0.0, 0.0, 1.615479270260574E9, 2021-03-11 17:14:30.260
90.0, 187500.0, 187500.0, -18829.80078125, -19877.2265625, 8876.8828125, -23379.54296875, 7080.60791015625, 9218.2841796875, 0.1080000028014183, 0.9140000343322754, 0.28200000524520874, 192.0, 0.0, 0.0, 0.0, 0.0, 0.0, 0.0, 0.0, 0.0, 0.0, 1.6154792702605767E9, 2021-03-11 17:14:30.260
91.0, 187500.0, 187500.0, -21092.37890625, -19828.43359375, 4815.52685546875, -23363.294921875, 5427.2939453125, 7748.298828125, 0.1080000028014183, 0.9140000343322754, 0.28200000524520874, 192.0, 0.0, 0.0, 0.0, 0.0, 0.0, 0.0, 0.0, 0.0, 0.0, 1.6154792702605793E9, 2021-03-11 17:14:30.260
92.0, 187500.0, 187500.0, -22241.125, -19829.326171875, 608.6603393554688, -23371.095703125, 4851.66943359375, 7073.4775390625, 0.1080000028014183, 0.9140000343322754, 0.28200000524520874, 192.0, 0.0, 0.0, 0.0, 0.0, 0.0, 0.0, 0.0, 0.0, 0.0, 1.615479270260582E9, 2021-03-11 17:14:30.260
93.0, 187500.0, 187500.0, -21000.0, -19857.04296875, 1532.234375, -23357.99609375, 6020.576171875, 8122.64599609375, 0.1080000028014183, 0.9140000343322754, 0.28200000524520874, 192.0, 0.0, 0.0, 0.0, 0.0, 0.0, 0.0, 0.0, 0.0, 0.0, 1.615479270260585E9, 2021-03-11 17:14:30.260
